TITLE,cer
DATA TYPE,RAMAN SPECTRUM
ORIGIN,JASCO
OWNER,
DATE,21/04/06
TIME,15:17:11
SPECTROMETER/DATA SYSTEM,
LOCALE,1041
RESOLUTION,
DELTAX,0.2
XUNITS,1/CM
YUNITS,INTENSITY
FIRSTX,   88.4787
LASTX, 1963.2787
NPOINTS,    9375
FIRSTY,    26.01411
MAXY,   546.00513
MINY,   -37.95501
XYDATA
88.4787,26.0141
88.6787,36.2511
88.8787,46.4057
89.0787,56.3956
89.2787,66.1385
89.4787,75.5521
89.6787,84.5539
89.8787,93.0618
90.0787,100.993
90.2787,108.266
90.4787,114.798
90.6787,120.506
90.8787,125.314
91.0787,129.146
91.2787,131.931
91.4787,133.595
91.6787,134.064
91.8787,133.265
92.0787,131.125
92.2787,127.57
92.4787,122.527
92.6787,115.924
92.8787,107.752
93.0787,98.2792
93.2787,87.8419
93.4787,76.7768
93.6787,65.4205
93.8787,54.1096
94.0787,43.1809
94.2787,32.971
94.4787,23.8165
94.6787,16.0541
94.8787,10.0099
95.0787,5.76036
95.2787,3.12702
95.4787,1.92017
95.6787,1.95002
95.8787,3.02678
96.0787,4.9607
96.2787,7.56198
96.4787,10.6409
96.6787,14.0075
96.8787,17.4722
97.0787,20.8947
97.2787,24.3348
97.4787,27.903
97.6787,31.7099
97.8787,35.8659
98.0787,40.4816
98.2787,45.6675
98.4787,51.5341
98.6787,58.1919
98.8787,65.7514
99.0787,74.3253
99.2787,84.0757
99.4787,95.2137
99.6787,107.952
99.8787,122.505
100.0787,139.085
100.2787,157.905
100.4787,179.179
100.6787,203.12
100.8787,229.94
101.0787,259.854
101.2787,292.835
101.4787,327.934
101.6787,363.981
101.8787,399.804
102.0787,434.233
102.2787,466.096
102.4787,494.223
102.6787,517.442
102.8787,534.584
103.0787,544.475
103.2787,546.005
103.4787,539.259
103.6787,525.448
103.8787,505.825
104.0787,481.645
104.2787,454.159
104.4787,424.623
104.6787,394.289
104.8787,364.412
105.0787,336.244
105.2787,311.04
105.4787,289.69
105.6787,271.793
105.8787,256.665
106.0787,243.62
106.2787,231.973
106.4787,221.039
106.6787,210.132
106.8787,198.566
107.0787,185.658
107.2787,170.72
107.4787,153.112
107.6787,132.947
107.8787,110.99
108.0787,88.0274
108.2787,64.8443
108.4787,42.2265
108.6787,20.9597
108.8787,1.82973
109.0787,-14.3778
109.2787,-26.8772
109.4787,-34.8829
109.6787,-37.955
109.8787,-36.7424
110.0787,-32.1078
110.2787,-24.9141
110.4787,-16.0238
110.6787,-6.29988
110.8787,3.39506
111.0787,12.1983
111.2787,19.2469
111.4787,23.6784
111.6787,24.7015
111.8787,22.5781
112.0787,18.3707
112.2787,13.1619
112.4787,8.03429
112.6787,4.07044
112.8787,2.35296
113.0787,3.9644
113.2787,9.98738
113.4787,21.5045
113.6787,39.5972
113.8787,64.7215
114.0787,95.6387
114.2787,130.826
114.4787,168.762
114.6787,207.924
114.8787,246.789
115.0787,283.834
115.2787,317.538
115.4787,346.378
115.6787,368.832
115.8787,383.494
116.0787,390.344
116.2787,390.268
116.4787,384.164
116.6787,372.933
116.8787,357.475
117.0787,338.69
117.2787,317.476
117.4787,294.735
117.6787,271.366
117.8787,248.268
118.0787,226.086
118.2787,204.893
118.4787,184.681
118.6787,165.446
118.8787,147.18
119.0787,129.878
119.2787,113.534
119.4787,98.1421
119.6787,83.6951
119.8787,70.1874
120.0787,57.6235
120.2787,46.1065
120.4787,35.7926
120.6787,26.8387
120.8787,19.4017
121.0787,13.6383
121.2787,9.70543
121.4787,7.75992
121.6787,7.9586
121.8787,10.4583
122.0787,15.4133
122.2787,22.7234
122.4787,31.8221
122.6787,42.0935
122.8787,52.9212
123.0787,63.6891
123.2787,73.7811
123.4787,82.5809
123.6787,89.4725
123.8787,93.8396
124.0787,95.0661
124.2787,92.6488
124.4787,86.8844
124.6787,78.4144
124.8787,67.8816
125.0787,55.929
125.2787,43.1993
125.4787,30.3354
125.6787,17.9803
125.8787,6.77668
126.0787,-2.63247
126.2787,-9.61206
126.4787,-13.9159
126.6787,-15.861
126.8787,-15.8083
127.0787,-14.1188
127.2787,-11.1536
127.4787,-7.27356
127.6787,-2.83978
127.8787,1.78676
128.0787,6.24506
128.2787,10.1741
128.4787,13.2723
128.6787,15.5526
128.8787,17.1315
129.0787,18.1256
129.2787,18.6515
129.4787,18.8258
129.6787,18.765
129.8787,18.5858
130.0787,18.4048
130.2787,18.3385
130.4787,18.5007
130.6787,18.9238
130.8787,19.5495
131.0787,20.3149
131.2787,21.157
131.4787,22.0127
131.6787,22.8191
131.8787,23.5133
132.0787,24.0322
132.2787,24.3128
132.4787,24.2922
132.6787,23.9346
132.8787,23.3089
133.0787,22.5091
133.2787,21.6293
133.4787,20.7638
133.6787,20.0065
133.8787,19.4516
134.0787,19.1931
134.2787,19.3253
134.4787,19.9421
134.6787,21.1305
134.8787,22.8558
135.0787,24.9819
135.2787,27.3695
135.4787,29.8794
135.6787,32.3725
135.8787,34.7095
136.0787,36.7513
136.2787,38.3585
136.4787,39.3921
136.6787,39.7128
136.8787,39.2504
137.0787,38.1219
137.2787,36.4757
137.4787,34.4605
137.6787,32.2249
137.8787,29.9174
138.0787,27.6867
138.2787,25.6812
138.4787,24.0495
138.6787,22.9403
138.8787,22.489
139.0787,22.6914
139.2787,23.4598
139.4787,24.7051
139.6787,26.3383
139.8787,28.2704
140.0787,30.4124
140.2787,32.6751
140.4787,34.9697
140.6787,37.2071
140.8787,39.2985
141.0787,41.1746
141.2787,42.8036
141.4787,44.1575
141.6787,45.2086
141.8787,45.9292
142.0787,46.2913
142.2787,46.2673
142.4787,45.8292
142.6787,44.9493
142.8787,43.5999
143.0787,41.7665
143.2787,39.5269
143.4787,36.9965
143.6787,34.2909
143.8787,31.5258
144.0787,28.8168
144.2787,26.2797
144.4787,24.03
144.6787,22.1834
144.8787,20.8556
145.0787,20.16
145.2787,20.1259
145.4787,20.6731
145.6787,21.7143
145.8787,23.1618
146.0787,24.9283
146.2787,26.9263
146.4787,29.0683
146.6787,31.2668
146.8787,33.4344
147.0787,35.4836
147.2787,37.3345
147.4787,38.9394
147.6787,40.2597
147.8787,41.2566
148.0787,41.8912
148.2787,42.1248
148.4787,41.9186
148.6787,41.2339
148.8787,40.0318
149.0787,38.2736
149.2787,35.9265
149.4787,33.0689
149.6787,29.8758
149.8787,26.5255
150.0787,23.1961
150.2787,20.0659
150.4787,17.3132
150.6787,15.1161
150.8787,13.653
151.0787,13.102
151.2787,13.6413
151.4787,15.3652
151.6787,18.1419
151.8787,21.802
152.0787,26.1762
152.2787,31.0949
152.4787,36.3889
152.6787,41.8888
152.8787,47.425
153.0787,52.8283
153.2787,57.9292
153.4787,62.5686
153.6787,66.6862
153.8787,70.2779
154.0787,73.3399
154.2787,75.8687
154.4787,77.8604
154.6787,79.3114
154.8787,80.2182
155.0787,80.5769
155.2787,80.3839
155.4787,79.6357
155.6787,78.3438
155.8787,76.5443
156.0787,74.2759
156.2787,71.5772
156.4787,68.4868
156.6787,65.0434
156.8787,61.2855
157.0787,57.2518
157.2787,52.9809
157.4787,48.5115
157.6787,43.8952
157.8787,39.2557
158.0787,34.7416
158.2787,30.5012
158.4787,26.683
158.6787,23.4355
158.8787,20.9072
159.0787,19.2464
159.2787,18.6017
159.4787,19.1215
159.6787,20.946
159.8787,24.0147
160.0787,28.0589
160.2787,32.8
160.4787,37.9598
160.6787,43.2599
160.8787,48.4219
161.0787,53.1675
161.2787,57.2182
161.4787,60.2956
161.6787,62.1215
161.8787,62.5249
162.0787,61.6713
162.2787,59.7919
162.4787,57.1178
162.6787,53.8802
162.8787,50.3103
163.0787,46.6393
163.2787,43.0984
163.4787,39.9187
163.6787,37.3315
163.8787,35.5472
164.0787,34.5479
164.2787,34.1734
164.4787,34.2616
164.6787,34.6502
164.8787,35.1771
165.0787,35.6801
165.2787,35.997
165.4787,35.9655
165.6787,35.4235
165.8787,34.2102
166.0787,32.2945
166.2787,29.8764
166.4787,27.1793
166.6787,24.4267
166.8787,21.8424
167.0787,19.6498
167.2787,18.0726
167.4787,17.3342
167.6787,17.6584
167.8787,19.2686
168.0787,22.3238
168.2787,26.6192
168.4787,31.8223
168.6787,37.6008
168.8787,43.6221
169.0787,49.5538
169.2787,55.0633
169.4787,59.8183
169.6787,63.4863
169.8787,65.7347
170.0787,66.2439
170.2787,64.9959
170.4787,62.2792
170.6787,58.3962
170.8787,53.6489
171.0787,48.3398
171.2787,42.7711
171.4787,37.2451
171.6787,32.0639
171.8787,27.53
172.0787,23.9454
172.2787,21.5152
172.4787,20.1595
172.6787,19.7464
172.8787,20.1439
173.0787,21.2201
173.2787,22.843
173.4787,24.8808
173.6787,27.2014
173.8787,29.673
174.0787,32.1636
174.2787,34.5499
174.4787,36.7934
174.6787,38.9028
174.8787,40.8875
175.0787,42.7569
175.2787,44.5204
175.4787,46.1874
175.6787,47.7673
175.8787,49.2694
176.0787,50.7031
176.2787,52.0776
176.4787,53.3847
176.6787,54.59
176.8787,55.6564
177.0787,56.5472
177.2787,57.2254
177.4787,57.6541
177.6787,57.7965
177.8787,57.6158
178.0787,57.0749
178.2787,56.1371
178.4787,54.7776
178.6787,53.0274
178.8787,50.9337
179.0787,48.5436
179.2787,45.9041
179.4787,43.0624
179.6787,40.0657
179.8787,36.961
180.0787,33.7955
180.2787,30.6162
180.4787,27.4721
180.6787,24.4388
180.8787,21.6147
181.0787,19.0987
181.2787,16.9896
181.4787,15.3863
181.6787,14.3876
181.8787,14.0925
182.0787,14.5998
182.2787,16.0084
182.4787,18.4166
182.6787,21.7957
182.8787,25.8337
183.0787,30.1804
183.2787,34.4856
183.4787,38.399
183.6787,41.5705
183.8787,43.6498
184.0787,44.2867
184.2787,43.1309
184.4787,39.8323
184.6787,34.1692
184.8787,26.7894
185.0787,18.7003
185.2787,10.9108
185.4787,4.42948
185.6787,0.265126
185.8787,-0.573563
186.0787,2.92213
186.2787,11.7609
186.4787,26.9515
186.6787,49.4552
186.8787,78.9006
187.0787,113.434
187.2787,151.122
187.4787,190.035
187.6787,228.24
187.8787,263.806
188.0787,294.8
188.2787,319.292
188.4787,335.349
188.6787,341.041
188.8787,335.26
189.0787,319.402
189.2787,295.334
189.4787,264.925
189.6787,230.041
189.8787,192.55
190.0787,154.321
190.2787,117.22
190.4787,83.1149
190.6787,53.8737
190.8787,31.1895
191.0787,15.1313
191.2787,4.8838
191.4787,-0.37694
191.6787,-1.47495
191.8787,0.765757
192.0787,5.52117
192.2787,11.9673
192.4787,19.2801
192.6787,26.6355
192.8787,33.2175
193.0787,38.5808
193.2787,42.802
193.4787,45.9971
193.6787,48.2822
193.8787,49.7733
194.0787,50.5864
194.2787,50.8373
194.4787,50.6423
194.6787,50.1172
194.8787,49.378
195.0787,48.5115
195.2787,47.4906
195.4787,46.2614
195.6787,44.7697
195.8787,42.9613
196.0787,40.7823
196.2787,38.1783
196.4787,35.0954
196.6787,31.4793
196.8787,27.2759
197.0787,22.4601
197.2787,17.3536
197.4787,12.5072
197.6787,8.47607
197.8787,5.8151
198.0787,5.07932
198.2787,6.82373
198.4787,11.6033
198.6787,19.9731
198.8787,32.4881
199.0787,49.6963
199.2787,71.6289
199.4787,97.4564
199.6787,126.267
199.8787,157.151
200.0787,189.195
200.2787,221.49
200.4787,253.122
200.6787,283.183
200.8787,310.759
201.0787,334.941
201.2787,354.954
201.4787,370.65
201.6787,382.059
201.8787,389.211
202.0787,392.134
202.2787,390.858
202.4787,385.413
202.6787,375.829
202.8787,362.133
203.0787,344.357
203.2787,322.562
203.4787,297.278
203.6787,269.386
203.8787,239.773
204.0787,209.327
204.2787,178.936
204.4787,149.487
204.6787,121.868
204.8787,96.9682
205.0787,75.6742
205.2787,58.8691
205.4787,46.9224
205.6787,39.2592
205.8787,35.2024
206.0787,34.0755
206.2787,35.2015
206.4787,37.9037
206.6787,41.5052
206.8787,45.3293
207.0787,48.6991
207.2787,50.9379
207.4787,51.5006
207.6787,50.4934
207.8787,48.223
208.0787,44.9964
208.2787,41.1204
208.4787,36.902
208.6787,32.6481
208.8787,28.6656
209.0787,25.2613
209.2787,22.7422
209.4787,21.3972
209.6787,21.2394
209.8787,22.0651
210.0787,23.6653
210.2787,25.8306
210.4787,28.3517
210.6787,31.0194
210.8787,33.6243
211.0787,35.9573
211.2787,37.8089
211.4787,38.971
211.6787,39.3416
211.8787,39.0206
212.0787,38.13
212.2787,36.7923
212.4787,35.1297
212.6787,33.2644
212.8787,31.3187
213.0787,29.4148
213.2787,27.675
213.4787,26.2216
213.6787,25.1527
213.8787,24.4467
214.0787,24.045
214.2787,23.8889
214.4787,23.9196
214.6787,24.0785
214.8787,24.3069
215.0787,24.5461
215.2787,24.7374
215.4787,24.8221
215.6787,24.7472
215.8787,24.5451
216.0787,24.314
216.2787,24.1536
216.4787,24.1639
216.6787,24.4446
216.8787,25.0955
217.0787,26.2165
217.2787,27.9074
217.4787,30.2681
217.6787,33.3967
217.8787,37.2414
218.0787,41.4776
218.2787,45.7519
218.4787,49.7111
218.6787,53.0017
218.8787,55.2703
219.0787,56.1637
219.2787,55.3285
219.4787,52.4114
219.6787,47.0589
219.8787,39.1237
220.0787,29.4083
220.2787,18.9891
220.4787,8.94221
220.6787,0.343939
220.8787,-5.72944
221.0787,-8.20167
221.2787,-5.99647
221.4787,1.9624
221.6787,16.7512
221.8787,39.3123
222.0787,68.8259
222.2787,103.23
222.4787,140.437
222.6787,178.358
222.8787,214.906
223.0787,247.992
223.2787,275.529
223.4787,295.428
223.6787,305.602
223.8787,303.987
224.0787,290.182
224.2787,266.479
224.4787,235.416
224.6787,199.529
224.8787,161.356
225.0787,123.434
225.2787,88.3018
225.4787,58.4956
225.6787,36.5531
225.8787,25.0118
226.0787,25.6687
226.2787,37.3898
226.4787,58.3156
226.6787,86.5869
226.8787,120.344
227.0787,157.728
227.2787,196.88
227.4787,235.939
227.6787,273.047
227.8787,306.344
228.0787,334.083
228.2787,355.693
228.4787,371.311
228.6787,381.088
228.8787,385.169
229.0787,383.704
229.2787,376.84
229.4787,364.726
229.6787,347.508
229.8787,325.337
230.0787,298.371
230.2787,267.333
230.4787,233.697
230.6787,198.991
230.8787,164.746
231.0787,132.49
231.2787,103.752
231.4787,80.0603
231.6787,62.9445
231.8787,53.9335
232.0787,54.5556
232.2787,65.6166
232.4787,85.6464
232.6787,112.728
232.8787,144.946
233.0787,180.383
233.2787,217.121
233.4787,253.246
233.6787,286.84
233.8787,315.986
234.0787,338.769
234.2787,353.526
234.4787,360.62
234.6787,361.378
234.8787,357.129
235.0787,349.206
235.2787,338.939
235.4787,327.661
235.6787,316.701
235.8787,307.392
236.0787,301.065
236.2787,299.002
236.4787,301.261
236.6787,306.607
236.8787,313.745
237.0787,321.376
237.2787,328.205
237.4787,332.936
237.6787,334.271
237.8787,330.915
238.0787,321.571
238.2787,304.945
238.4787,280.624
238.6787,250.251
238.8787,215.759
239.0787,179.084
239.2787,142.16
239.4787,106.921
239.6787,75.303
239.8787,49.2401
240.0787,30.667
240.2787,21.5184
240.4787,23.2848
240.6787,34.9839
240.8787,54.7778
241.0787,80.828
241.2787,111.296
241.4787,144.342
241.6787,178.129
241.8787,210.817
242.0787,240.567
242.2787,265.542
242.4787,284.002
242.6787,295.697
242.8787,301.524
243.0787,302.407
243.2787,299.271
243.4787,293.042
243.6787,284.644
243.8787,275.004
244.0787,265.045
244.2787,255.693
244.4787,247.867
244.6787,242.07
244.8787,238.124
245.0787,235.786
245.2787,234.816
245.4787,234.971
245.6787,236.01
245.8787,237.692
246.0787,239.775
246.2787,242.017
246.4787,244.177
246.6787,246.058
246.8787,247.627
247.0787,248.891
247.2787,249.854
247.4787,250.522
247.6787,250.9
247.8787,250.994
248.0787,250.809
248.2787,250.35
248.4787,249.624
248.6787,248.636
248.8787,247.412
249.0787,245.986
249.2787,244.393
249.4787,242.666
249.6787,240.839
249.8787,238.946
250.0787,237.022
250.2787,235.1
250.4787,233.215
250.6787,231.4
250.8787,229.696
251.0787,228.145
251.2787,226.794
251.4787,225.686
251.6787,224.867
251.8787,224.38
252.0787,224.271
252.2787,224.584
252.4787,225.364
252.6787,226.656
252.8787,228.447
253.0787,230.604
253.2787,232.972
253.4787,235.398
253.6787,237.728
253.8787,239.81
254.0787,241.491
254.2787,242.616
254.4787,243.032
254.6787,242.587
254.8787,241.166
255.0787,238.855
255.2787,235.802
255.4787,232.156
255.6787,228.066
255.8787,223.68
256.0787,219.148
256.2787,214.617
256.4787,210.238
256.6787,206.158
256.8787,202.519
257.0787,199.37
257.2787,196.701
257.4787,194.497
257.6787,192.746
257.8787,191.434
258.0787,190.549
258.2787,190.078
258.4787,190.007
258.6787,190.323
258.8787,191.013
259.0787,192.049
259.2787,193.382
259.4787,194.964
259.6787,196.743
259.8787,198.672
260.0787,200.699
260.2787,202.775
260.4787,204.852
260.6787,206.878
260.8787,208.804
261.0787,210.585
261.2787,212.18
261.4787,213.555
261.6787,214.671
261.8787,215.492
262.0787,215.981
262.2787,216.102
262.4787,215.818
262.6787,215.091
262.8787,213.885
263.0787,212.176
263.2787,210.023
263.4787,207.513
263.6787,204.735
263.8787,201.779
264.0787,198.733
264.2787,195.685
264.4787,192.725
264.6787,189.94
264.8787,187.421
265.0787,185.251
265.2787,183.472
265.4787,182.088
265.6787,181.104
265.8787,180.522
266.0787,180.347
266.2787,180.583
266.4787,181.234
266.6787,182.304
266.8787,183.796
267.0787,185.714
267.2787,188.013
267.4787,190.576
267.6787,193.282
267.8787,196.006
268.0787,198.627
268.2787,201.023
268.4787,203.07
268.6787,204.647
268.8787,205.63
269.0787,205.897
269.2787,205.376
269.4787,204.15
269.6787,202.329
269.8787,200.026
270.0787,197.351
270.2787,194.417
270.4787,191.333
270.6787,188.213
270.8787,185.167
271.0787,182.306
271.2787,179.732
271.4787,177.477
271.6787,175.547
271.8787,173.947
272.0787,172.681
272.2787,171.756
272.4787,171.177
272.6787,170.949
272.8787,171.078
273.0787,171.569
273.2787,172.423
273.4787,173.593
273.6787,174.991
273.8787,176.528
274.0787,178.117
274.2787,179.667
274.4787,181.091
274.6787,182.3
274.8787,183.206
275.0787,183.719
275.2787,183.753
275.4787,183.271
275.6787,182.315
275.8787,180.932
276.0787,179.169
276.2787,177.075
276.4787,174.695
276.6787,172.079
276.8787,169.272
277.0787,166.323
277.2787,163.279
277.4787,160.177
277.6787,157.029
277.8787,153.839
278.0787,150.614
278.2787,147.359
278.4787,144.08
278.6787,140.783
278.8787,137.472
279.0787,134.154
279.2787,130.835
279.4787,127.524
279.6787,124.257
279.8787,121.079
280.0787,118.036
280.2787,115.173
280.4787,112.535
280.6787,110.167
280.8787,108.114
281.0787,106.421
281.2787,105.135
281.4787,104.294
281.6787,103.865
281.8787,103.764
282.0787,103.908
282.2787,104.211
282.4787,104.588
282.6787,104.955
282.8787,105.227
283.0787,105.319
283.2787,105.147
283.4787,104.626
283.6787,103.705
283.8787,102.371
284.0787,100.614
284.2787,98.4262
284.4787,95.7973
284.6787,92.718
284.8787,89.179
285.0787,85.1709
285.2787,80.6843
285.4787,75.7099
285.6787,70.2829
285.8787,64.5442
286.0787,58.6505
286.2787,52.7583
286.4787,47.0242
286.6787,41.6046
286.8787,36.6563
287.0787,32.3357
287.2787,28.7994
287.4787,26.204
287.6787,24.6641
287.8787,24.0993
288.0787,24.3719
288.2787,25.3444
288.4787,26.8794
288.6787,28.8393
288.8787,31.0866
289.0787,33.4838
289.2787,35.8933
289.4787,38.1776
289.6787,40.2075
289.8787,41.9318
290.0787,43.3426
290.2787,44.4322
290.4787,45.1931
290.6787,45.6178
290.8787,45.6985
291.0787,45.4278
291.2787,44.7981
291.4787,43.8018
291.6787,42.4332
291.8787,40.7268
292.0787,38.7574
292.2787,36.601
292.4787,34.3342
292.6787,32.0331
292.8787,29.7742
293.0787,27.6336
293.2787,25.6878
293.4787,24.0129
293.6787,22.685
293.8787,21.7485
294.0787,21.1922
294.2787,20.9996
294.4787,21.1538
294.6787,21.6383
294.8787,22.4362
295.0787,23.5308
295.2787,24.9056
295.4787,26.5437
295.6787,28.4285
295.8787,30.5318
296.0787,32.7887
296.2787,35.1269
296.4787,37.4738
296.6787,39.7571
296.8787,41.9044
297.0787,43.8433
297.2787,45.5014
297.4787,46.8063
297.6787,47.6856
297.8787,48.0807
298.0787,48.0186
298.2787,47.5581
298.4787,46.7587
298.6787,45.6793
298.8787,44.3793
299.0787,42.9176
299.2787,41.3536
299.4787,39.7464
299.6787,38.1552
299.8787,36.6387
300.0787,35.2517
300.2787,34.046
300.4787,33.0736
300.6787,32.3861
300.8787,32.0354
301.0787,32.0734
301.2787,32.5519
301.4787,33.5227
301.6787,35.0375
301.8787,37.1462
302.0787,39.8334
302.2787,43.0082
302.4787,46.5756
302.6787,50.4406
302.8787,54.5082
303.0787,58.6834
303.2787,62.871
303.4787,66.9761
303.6787,70.9036
303.8787,74.5588
304.0787,77.8874
304.2787,80.9158
304.4787,83.6802
304.6787,86.2165
304.8787,88.5609
305.0787,90.7494
305.2787,92.8181
305.4787,94.8031
305.6787,96.7404
305.8787,98.6662
306.0787,100.609
306.2787,102.573
306.4787,104.554
306.6787,106.55
306.8787,108.559
307.0787,110.579
307.2787,112.606
307.4787,114.638
307.6787,116.672
307.8787,118.707
308.0787,120.738
308.2787,122.762
308.4787,124.772
308.6787,126.762
308.8787,128.728
309.0787,130.663
309.2787,132.562
309.4787,134.418
309.6787,136.227
309.8787,137.982
310.0787,139.681
310.2787,141.345
310.4787,143.016
310.6787,144.737
310.8787,146.548
311.0787,148.491
311.2787,150.608
311.4787,152.94
311.6787,155.529
311.8787,158.417
312.0787,161.642
312.2787,165.163
312.4787,168.845
312.6787,172.551
312.8787,176.142
313.0787,179.479
313.2787,182.425
313.4787,184.842
313.6787,186.589
313.8787,187.531
314.0787,187.528
314.2787,186.551
314.4787,184.769
314.6787,182.373
314.8787,179.553
315.0787,176.501
315.2787,173.408
315.4787,170.464
315.6787,167.861
315.8787,165.79
316.0787,164.44
316.2787,163.935
316.4787,164.174
316.6787,165.015
316.8787,166.316
317.0787,167.934
317.2787,169.727
317.4787,171.552
317.6787,173.266
317.8787,174.727
318.0787,175.792
318.2787,176.341
318.4787,176.364
318.6787,175.895
318.8787,174.964
319.0787,173.603
319.2787,171.844
319.4787,169.718
319.6787,167.258
319.8787,164.494
320.0787,161.459
320.2787,158.186
320.4787,154.738
320.6787,151.19
320.8787,147.62
321.0787,144.103
321.2787,140.716
321.4787,137.537
321.6787,134.641
321.8787,132.106
322.0787,130.008
322.2787,128.419
322.4787,127.326
322.6787,126.641
322.8787,126.27
323.0787,126.121
323.2787,126.101
323.4787,126.118
323.6787,126.079
323.8787,125.891
324.0787,125.463
324.2787,124.702
324.4787,123.567
324.6787,122.087
324.8787,120.298
325.0787,118.234
325.2787,115.932
325.4787,113.427
325.6787,110.753
325.8787,107.947
326.0787,105.042
326.2787,102.076
326.4787,99.076
326.6787,96.0598
326.8787,93.0415
327.0787,90.0356
327.2787,87.0565
327.4787,84.1187
327.6787,81.2367
327.8787,78.4249
328.0787,75.6978
328.2787,73.0699
328.4787,70.5586
328.6787,68.1926
328.8787,66.0033
329.0787,64.022
329.2787,62.2801
329.4787,60.8089
329.6787,59.6397
329.8787,58.804
330.0787,58.3329
330.2787,58.258
330.4787,58.6017
330.6787,59.3309
330.8787,60.3912
331.0787,61.7284
331.2787,63.288
331.4787,65.0155
331.6787,66.8566
331.8787,68.7569
332.0787,70.662
332.2787,72.5175
332.4787,74.2706
332.6787,75.8856
332.8787,77.3371
333.0787,78.6
333.2787,79.6491
333.4787,80.4591
333.6787,81.0048
333.8787,81.2612
334.0787,81.2029
334.2787,80.8048
334.4787,80.0454
334.6787,78.9763
334.8787,77.7173
335.0787,76.3905
335.2787,75.1182
335.4787,74.0224
335.6787,73.2255
335.8787,72.8496
336.0787,73.0168
336.2787,73.8495
336.4787,75.4671
336.6787,77.8681
336.8787,80.8818
337.0787,84.3245
337.2787,88.0127
337.4787,91.763
337.6787,95.3917
337.8787,98.7153
338.0787,101.55
338.2787,103.713
338.4787,105.021
338.6787,105.394
338.8787,104.967
339.0787,103.905
339.2787,102.374
339.4787,100.538
339.6787,98.5608
339.8787,96.6078
340.0787,94.8433
340.2787,93.4321
340.4787,92.5387
340.6787,92.2794
340.8787,92.611
341.0787,93.4579
341.2787,94.7441
341.4787,96.3937
341.6787,98.331
341.8787,100.48
342.0787,102.765
342.2787,105.11
342.4787,107.439
342.6787,109.687
342.8787,111.841
343.0787,113.907
343.2787,115.89
343.4787,117.795
343.6787,119.626
343.8787,121.39
344.0787,123.091
344.2787,124.734
344.4787,126.324
344.6787,127.863
344.8787,129.33
345.0787,130.689
345.2787,131.905
345.4787,132.945
345.6787,133.773
345.8787,134.356
346.0787,134.657
346.2787,134.644
346.4787,134.28
346.6787,133.537
346.8787,132.458
347.0787,131.136
347.2787,129.667
347.4787,128.147
347.6787,126.67
347.8787,125.333
348.0787,124.23
348.2787,123.457
348.4787,123.109
348.6787,123.279
348.8787,123.982
349.0787,125.156
349.2787,126.733
349.4787,128.647
349.6787,130.83
349.8787,133.217
350.0787,135.739
350.2787,138.329
350.4787,140.922
350.6787,143.45
350.8787,145.857
351.0787,148.103
351.2787,150.147
351.4787,151.95
351.6787,153.472
351.8787,154.675
352.0787,155.519
352.2787,155.964
352.4787,155.971
352.6787,155.501
352.8787,154.545
353.0787,153.166
353.2787,151.435
353.4787,149.421
353.6787,147.196
353.8787,144.829
354.0787,142.392
354.2787,139.955
354.4787,137.588
354.6787,135.363
354.8787,133.338
355.0787,131.541
355.2787,129.991
355.4787,128.707
355.6787,127.709
355.8787,127.017
356.0787,126.651
356.2787,126.63
356.4787,126.974
356.6787,127.702
356.8787,128.816
357.0787,130.23
357.2787,131.835
357.4787,133.519
357.6787,135.174
357.8787,136.688
358.0787,137.952
358.2787,138.855
358.4787,139.287
358.6787,139.139
358.8787,138.316
359.0787,136.849
359.2787,134.814
359.4787,132.291
359.6787,129.359
359.8787,126.096
360.0787,122.581
360.2787,118.894
360.4787,115.112
360.6787,111.315
360.8787,107.578
361.0787,103.947
361.2787,100.451
361.4787,97.1168
361.6787,93.9731
361.8787,91.0478
362.0787,88.3686
362.2787,85.9636
362.4787,83.8607
362.6787,82.0878
362.8787,80.6704
363.0787,79.5918
363.2787,78.8018
363.4787,78.2487
363.6787,77.8811
363.8787,77.6476
364.0787,77.4967
364.2787,77.3768
364.4787,77.2367
364.6787,77.0247
364.8787,76.6906
365.0787,76.2123
365.2787,75.5999
365.4787,74.8649
365.6787,74.0187
365.8787,73.0729
366.0787,72.0391
366.2787,70.9287
366.4787,69.7533
366.6787,68.5243
366.8787,67.2533
367.0787,65.9436
367.2787,64.5871
367.4787,63.1744
367.6787,61.6965
367.8787,60.144
368.0787,58.5079
368.2787,56.7787
368.4787,54.9474
368.6787,53.0047
368.8787,50.9415
369.0787,48.778
369.2787,46.593
369.4787,44.4728
369.6787,42.5032
369.8787,40.7706
370.0787,39.3609
370.2787,38.3603
370.4787,37.8548
370.6787,37.9307
370.8787,38.6738
371.0787,40.1068
371.2787,42.0769
371.4787,44.401
371.6787,46.8962
371.8787,49.3795
372.0787,51.6679
372.2787,53.5785
372.4787,54.9282
372.6787,55.5341
372.8787,55.2132
373.0787,53.851
373.2787,51.5926
373.4787,48.6449
373.6787,45.2144
373.8787,41.5081
374.0787,37.7326
374.2787,34.0946
374.4787,30.8009
374.6787,28.0583
374.8787,26.0735
375.0787,25.0108
375.2787,24.8148
375.4787,25.3593
375.6787,26.5178
375.8787,28.1639
376.0787,30.1713
376.2787,32.4135
376.4787,34.7641
376.6787,37.0969
376.8787,39.2853
377.0787,41.2144
377.2787,42.8511
377.4787,44.1971
377.6787,45.2545
377.8787,46.0254
378.0787,46.5118
378.2787,46.7157
378.4787,46.6394
378.6787,46.2847
378.8787,45.6537
379.0787,44.752
379.2787,43.6188
379.4787,42.3128
379.6787,40.8925
379.8787,39.4168
380.0787,37.9443
380.2787,36.5338
380.4787,35.2439
380.6787,34.1336
380.8787,33.2613
381.0787,32.6824
381.2787,32.403
381.4787,32.3934
381.6787,32.6229
381.8787,33.061
382.0787,33.6771
382.2787,34.4407
382.4787,35.3212
382.6787,36.288
382.8787,37.3106
383.0787,38.358
383.2787,39.3919
383.4787,40.3671
383.6787,41.2381
383.8787,41.9594
384.0787,42.4855
384.2787,42.7711
384.4787,42.7706
384.6787,42.4385
384.8787,41.7293
385.0787,40.5995
385.2787,39.0647
385.4787,37.2105
385.6787,35.1264
385.8787,32.902
386.0787,30.6267
386.2787,28.3902
386.4787,26.282
386.6787,24.3916
386.8787,22.8086
387.0787,21.6215
387.2787,20.8636
387.4787,20.4863
387.6787,20.4344
387.8787,20.6527
388.0787,21.0862
388.2787,21.6795
388.4787,22.3775
388.6787,23.1251
388.8787,23.8671
389.0787,24.5485
389.2787,25.1499
389.4787,25.7169
389.6787,26.3022
389.8787,26.9589
390.0787,27.7397
390.2787,28.6974
390.4787,29.8849
390.6787,31.3549
390.8787,33.1605
391.0787,35.3541
391.2787,37.933
391.4787,40.766
391.6787,43.7033
391.8787,46.5953
392.0787,49.2924
392.2787,51.6448
392.4787,53.503
392.6787,54.7173
392.8787,55.138
393.0787,54.6156
393.2787,53.0769
393.4787,50.6711
393.6787,47.5882
393.8787,44.0177
394.0787,40.1495
394.2787,36.1731
394.4787,32.2785
394.6787,28.6552
394.8787,25.4931
395.0787,22.9818
395.2787,21.2592
395.4787,20.274
395.6787,19.9317
395.8787,20.1381
396.0787,20.7987
396.2787,21.8191
396.4787,23.1049
396.6787,24.5617
396.8787,26.0952
397.0787,27.6109
397.2787,29.0285
397.4787,30.3317
397.6787,31.5224
397.8787,32.6021
398.0787,33.5728
398.2787,34.4362
398.4787,35.194
398.6787,35.8481
398.8787,36.4002
399.0787,36.8521
399.2787,37.205
399.4787,37.457
399.6787,37.6054
399.8787,37.6471
400.0787,37.5794
400.2787,37.3993
400.4787,37.1039
400.6787,36.6903
400.8787,36.1556
401.0787,35.497
401.2787,34.7182
401.4787,33.869
401.6787,33.0184
401.8787,32.2357
402.0787,31.5901
402.2787,31.1508
402.4787,30.9872
402.6787,31.1682
402.8787,31.7633
403.0787,32.8415
403.2787,34.4595
403.4787,36.5664
403.6787,39.0567
403.8787,41.8249
404.0787,44.7652
404.2787,47.7718
404.4787,50.7392
404.6787,53.5615
404.8787,56.133
405.0787,58.3481
405.2787,60.1071
405.4787,61.3732
405.6787,62.1478
405.8787,62.4323
406.0787,62.2285
406.2787,61.5379
406.4787,60.3622
406.6787,58.703
406.8787,56.5619
407.0787,53.9405
407.2787,50.8465
407.4787,47.3641
407.6787,43.6314
407.8787,39.7875
408.0787,35.9716
408.2787,32.3228
408.4787,28.9802
408.6787,26.0831
408.8787,23.7705
409.0787,22.1816
409.2787,21.4474
409.4787,21.5693
409.6787,22.4435
409.8787,23.9629
410.0787,26.0208
410.2787,28.5102
410.4787,31.3242
410.6787,34.3561
410.8787,37.4989
411.0787,40.6456
411.2787,43.6916
411.4787,46.5722
411.6787,49.2609
411.8787,51.7322
412.0787,53.9609
412.2787,55.9216
412.4787,57.5891
412.6787,58.938
412.8787,59.943
413.0787,60.5789
413.2787,60.8224
413.4787,60.7062
413.6787,60.3225
413.8787,59.7658
414.0787,59.1311
414.2787,58.5132
414.4787,58.0068
414.6787,57.7068
414.8787,57.7079
415.0787,58.1051
415.2787,58.9905
415.4787,60.372
415.6787,62.1563
415.8787,64.244
416.0787,66.5358
416.2787,68.9324
416.4787,71.3342
416.6787,73.6421
416.8787,75.7566
417.0787,77.5784
417.2787,79.0097
417.4787,80.0205
417.6787,80.6725
417.8787,81.0338
418.0787,81.1723
418.2787,81.1561
418.4787,81.0534
418.6787,80.9322
418.8787,80.8605
419.0787,80.9065
419.2787,81.1375
419.4787,81.5888
419.6787,82.2463
419.8787,83.0923
420.0787,84.1087
420.2787,85.2777
420.4787,86.5813
420.6787,88.0015
420.8787,89.5206
421.0787,91.1204
421.2787,92.7834
421.4787,94.5069
421.6787,96.3132
421.8787,98.2273
422.0787,100.274
422.2787,102.479
422.4787,104.865
422.6787,107.459
422.8787,110.286
423.0787,113.369
423.2787,116.734
423.4787,120.383
423.6787,124.276
423.8787,128.368
424.0787,132.615
424.2787,136.972
424.4787,141.395
424.6787,145.839
424.8787,150.26
425.0787,154.613
425.2787,158.855
425.4787,162.95
425.6787,166.886
425.8787,170.65
426.0787,174.233
426.2787,177.623
426.4787,180.809
426.6787,183.78
426.8787,186.525
427.0787,189.033
427.2787,191.293
427.4787,193.324
427.6787,195.206
427.8787,197.031
428.0787,198.889
428.2787,200.87
428.4787,203.065
428.6787,205.564
428.8787,208.457
429.0787,211.836
429.2787,215.79
429.4787,220.357
429.6787,225.449
429.8787,230.96
430.0787,236.785
430.2787,242.818
430.4787,248.951
430.6787,255.081
430.8787,261.1
431.0787,266.903
431.2787,272.383
431.4787,277.481
431.6787,282.254
431.8787,286.778
432.0787,291.128
432.2787,295.38
432.4787,299.609
432.6787,303.892
432.8787,308.303
433.0787,312.92
433.2787,317.816
433.4787,323.042
433.6787,328.578
433.8787,334.389
434.0787,340.443
434.2787,346.708
434.4787,353.15
434.6787,359.736
434.8787,366.434
435.0787,373.21
435.2787,380.032
435.4787,386.859
435.6787,393.634
435.8787,400.294
436.0787,406.776
436.2787,413.019
436.4787,418.96
436.6787,424.536
436.8787,429.687
437.0787,434.349
437.2787,438.46
437.4787,441.988
437.6787,444.99
437.8787,447.54
438.0787,449.714
438.2787,451.585
438.4787,453.229
438.6787,454.718
438.8787,456.129
439.0787,457.536
439.2787,459.012
439.4787,460.606
439.6787,462.279
439.8787,463.977
440.0787,465.644
440.2787,467.226
440.4787,468.668
440.6787,469.915
440.8787,470.912
441.0787,471.604
441.2787,471.937
441.4787,471.879
441.6787,471.474
441.8787,470.781
442.0787,469.86
442.2787,468.771
442.4787,467.573
442.6787,466.326
442.8787,465.089
443.0787,463.922
443.2787,462.885
443.4787,462.012
443.6787,461.262
443.8787,460.572
444.0787,459.882
444.2787,459.133
444.4787,458.263
444.6787,457.211
444.8787,455.918
445.0787,454.323
445.2787,452.365
445.4787,450.016
445.6787,447.352
445.8787,444.472
446.0787,441.477
446.2787,438.467
446.4787,435.541
446.6787,432.798
446.8787,430.339
447.0787,428.263
447.2787,426.67
447.4787,425.615
447.6787,425
447.8787,424.697
448.0787,424.574
448.2787,424.501
448.4787,424.349
448.6787,423.988
448.8787,423.288
449.0787,422.118
449.2787,420.348
449.4787,417.898
449.6787,414.847
449.8787,411.315
450.0787,407.419
450.2787,403.275
450.4787,399.001
450.6787,394.716
450.8787,390.535
451.0787,386.576
451.2787,382.957
451.4787,379.755
451.6787,376.906
451.8787,374.318
452.0787,371.899
452.2787,369.557
452.4787,367.2
452.6787,364.735
452.8787,362.07
453.0787,359.113
453.2787,355.772
453.4787,351.994
453.6787,347.855
453.8787,343.46
454.0787,338.913
454.2787,334.317
454.4787,329.779
454.6787,325.4
454.8787,321.287
455.0787,317.542
455.2787,314.271
455.4787,311.532
455.6787,309.243
455.8787,307.292
456.0787,305.566
456.2787,303.951
456.4787,302.337
456.6787,300.61
456.8787,298.657
457.0787,296.366
457.2787,293.626
457.4787,290.361
457.6787,286.626
457.8787,282.496
458.0787,278.047
458.2787,273.356
458.4787,268.5
458.6787,263.555
458.8787,258.597
459.0787,253.704
459.2787,248.95
459.4787,244.386
459.6787,239.976
459.8787,235.671
460.0787,231.42
460.2787,227.173
460.4787,222.879
460.6787,218.488
460.8787,213.951
461.0787,209.216
461.2787,204.233
461.4787,198.996
461.6787,193.622
461.8787,188.25
462.0787,183.02
462.2787,178.072
462.4787,173.545
462.6787,169.579
462.8787,166.312
463.0787,163.886
463.2787,162.44
463.4787,162.021
463.6787,162.434
463.8787,163.44
464.0787,164.8
464.2787,166.276
464.4787,167.628
464.6787,168.62
464.8787,169.011
465.0787,168.564
465.2787,167.04
465.4787,164.314
465.6787,160.55
465.8787,155.955
466.0787,150.738
466.2787,145.108
466.4787,139.274
466.6787,133.443
466.8787,127.824
467.0787,122.626
467.2787,118.057
467.4787,114.249
467.6787,111.149
467.8787,108.68
468.0787,106.764
468.2787,105.323
468.4787,104.28
468.6787,103.555
468.8787,103.072
469.0787,102.753
469.2787,102.518
469.4787,102.3
469.6787,102.043
469.8787,101.697
470.0787,101.21
470.2787,100.531
470.4787,99.6095
470.6787,98.3937
470.8787,96.8325
471.0787,94.8746
471.2787,92.4692
471.4787,89.6174
471.6787,86.4249
471.8787,83.01
472.0787,79.491
472.2787,75.9862
472.4787,72.6139
472.6787,69.4924
472.8787,66.74
473.0787,64.475
473.2787,62.8149
473.4787,61.8002
473.6787,61.3294
473.8787,61.286
474.0787,61.5534
474.2787,62.0151
474.4787,62.5545
474.6787,63.0549
474.8787,63.3999
475.0787,63.4729
475.2787,63.1581
475.4787,62.4107
475.6787,61.3029
475.8787,59.9183
476.0787,58.3405
476.2787,56.653
476.4787,54.9393
476.6787,53.283
476.8787,51.7676
477.0787,50.4767
477.2787,49.4926
477.4787,48.8362
477.6787,48.4353
477.8787,48.2103
478.0787,48.0815
478.2787,47.9694
478.4787,47.7942
478.6787,47.4762
478.8787,46.936
479.0787,46.0937
479.2787,44.8716
479.4787,43.2678
479.6787,41.3827
479.8787,39.3235
480.0787,37.1979
480.2787,35.1133
480.4787,33.1771
480.6787,31.4968
480.8787,30.1799
481.0787,29.3337
481.2787,29.063
481.4787,29.3804
481.6787,30.1883
481.8787,31.3829
482.0787,32.8604
482.2787,34.5168
482.4787,36.2483
482.6787,37.951
482.8787,39.5211
483.0787,40.8546
483.2787,41.8502
483.4787,42.4725
483.6787,42.7553
483.8787,42.7359
484.0787,42.4514
484.2787,41.9392
484.4787,41.2363
484.6787,40.3801
484.8787,39.4077
485.0787,38.3563
485.2787,37.2632
485.4787,36.1622
485.6787,35.0846
485.8787,34.0616
486.0787,33.1243
486.2787,32.3038
486.4787,31.6313
486.6787,31.1379
486.8787,30.8546
487.0787,30.8128
487.2787,31.0405
487.4787,31.5195
487.6787,32.194
487.8787,33.007
488.0787,33.9016
488.2787,34.821
488.4787,35.7081
488.6787,36.5061
488.8787,37.158
489.0787,37.607
489.2787,37.7998
489.4787,37.7312
489.6787,37.4293
489.8787,36.9231
490.0787,36.2412
490.2787,35.4127
490.4787,34.4664
490.6787,33.431
490.8787,32.3354
491.0787,31.2085
491.2787,30.0792
491.4787,28.9766
491.6787,27.9302
491.8787,26.9692
492.0787,26.1232
492.2787,25.4214
492.4787,24.8933
492.6787,24.5683
492.8787,24.4757
493.0787,24.6449
493.2787,25.0986
493.4787,25.8027
493.6787,26.6942
493.8787,27.7099
494.0787,28.7869
494.2787,29.8619
494.4787,30.872
494.6787,31.7538
494.8787,32.4444
495.0787,32.8806
495.2787,33.0106
495.4787,32.8604
495.6787,32.4887
495.8787,31.9544
496.0787,31.3165
496.2787,30.6338
496.4787,29.9653
496.6787,29.3698
496.8787,28.9063
497.0787,28.6337
497.2787,28.5973
497.4787,28.7667
497.6787,29.0848
497.8787,29.4946
498.0787,29.9392
498.2787,30.3616
498.4787,30.7047
498.6787,30.9115
498.8787,30.925
499.0787,30.6883
499.2787,30.1635
499.4787,29.4003
499.6787,28.4731
499.8787,27.4562
500.0787,26.4242
500.2787,25.4515
500.4787,24.6124
500.6787,23.9814
500.8787,23.6329
501.0787,23.6413
501.2787,24.0534
501.4787,24.8147
501.6787,25.8476
501.8787,27.0745
502.0787,28.4177
502.2787,29.7997
502.4787,31.1428
502.6787,32.3694
502.8787,33.4019
503.0787,34.1628
503.2787,34.5993
503.4787,34.7319
503.6787,34.5946
503.8787,34.221
504.0787,33.645
504.2787,32.9004
504.4787,32.0209
504.6787,31.0405
504.8787,29.9929
505.0787,28.912
505.2787,27.8356
505.4787,26.811
505.6787,25.887
505.8787,25.1123
506.0787,24.5355
506.2787,24.2055
506.4787,24.1709
506.6787,24.4804
506.8787,25.1827
507.0787,26.326
507.2787,27.9033
507.4787,29.8037
507.6787,31.9052
507.8787,34.0857
508.0787,36.2231
508.2787,38.1951
508.4787,39.8799
508.6787,41.1551
508.8787,41.8987
509.0787,41.9902
509.2787,41.4002
509.4787,40.2353
509.6787,38.6136
509.8787,36.653
510.0787,34.4712
510.2787,32.1864
510.4787,29.9163
510.6787,27.7789
510.8787,25.8921
511.0787,24.3717
511.2787,23.2639
511.4787,22.532
511.6787,22.1344
511.8787,22.0294
512.0787,22.1756
512.2787,22.5314
512.4787,23.055
512.6787,23.705
512.8787,24.4398
513.0787,25.2188
513.2787,26.0256
513.4787,26.8665
513.6787,27.7483
513.8787,28.6782
514.0787,29.6632
514.2787,30.7104
514.4787,31.8269
514.6787,33.0196
514.8787,34.2956
515.0787,35.661
515.2787,37.1069
515.4787,38.6134
515.6787,40.1603
515.8787,41.7274
516.0787,43.2945
516.2787,44.8415
516.4787,46.3482
516.6787,47.7944
516.8787,49.1599
517.0787,50.4262
517.2787,51.5923
517.4787,52.667
517.6787,53.6593
517.8787,54.5782
518.0787,55.4327
518.2787,56.2319
518.4787,56.9847
518.6787,57.7002
518.8787,58.3873
519.0787,59.0546
519.2787,59.7073
519.4787,60.349
519.6787,60.9833
519.8787,61.6138
520.0787,62.2442
520.2787,62.8781
520.4787,63.5191
520.6787,64.1709
520.8787,64.837
521.0787,65.5186
521.2787,66.2034
521.4787,66.8746
521.6787,67.5154
521.8787,68.109
522.0787,68.6386
522.2787,69.0874
522.4787,69.4387
522.6787,69.6756
522.8787,69.7814
523.0787,69.7526
523.2787,69.6378
523.4787,69.4987
523.6787,69.3967
523.8787,69.3934
524.0787,69.5503
524.2787,69.9289
524.4787,70.5909
524.6787,71.5976
524.8787,73.0106
525.0787,74.8614
525.2787,77.0947
525.4787,79.6402
525.6787,82.4273
525.8787,85.3854
526.0787,88.4441
526.2787,91.5329
526.4787,94.5811
526.6787,97.5184
526.8787,100.274
527.0787,102.81
527.2787,105.153
527.4787,107.338
527.6787,109.402
527.8787,111.381
528.0787,113.309
528.2787,115.224
528.4787,117.16
528.6787,119.153
528.8787,121.239
529.0787,123.421
529.2787,125.654
529.4787,127.885
529.6787,130.066
529.8787,132.146
530.0787,134.075
530.2787,135.801
530.4787,137.275
530.6787,138.446
530.8787,139.266
531.0787,139.746
531.2787,139.966
531.4787,140.009
531.6787,139.96
531.8787,139.903
532.0787,139.92
532.2787,140.097
532.4787,140.517
532.6787,141.264
532.8787,142.418
533.0787,143.989
533.2787,145.932
533.4787,148.195
533.6787,150.729
533.8787,153.486
534.0787,156.415
534.2787,159.467
534.4787,162.593
534.6787,165.743
534.8787,168.87
535.0787,171.954
535.2787,174.993
535.4787,177.984
535.6787,180.924
535.8787,183.811
536.0787,186.643
536.2787,189.416
536.4787,192.128
536.6787,194.777
536.8787,197.362
537.0787,199.903
537.2787,202.429
537.4787,204.967
537.6787,207.546
537.8787,210.194
538.0787,212.94
538.2787,215.811
538.4787,218.835
538.6787,222.041
538.8787,225.449
539.0787,229.029
539.2787,232.742
539.4787,236.544
539.6787,240.394
539.8787,244.25
540.0787,248.07
540.2787,251.812
540.4787,255.434
540.6787,258.895
540.8787,262.158
541.0787,265.206
541.2787,268.024
541.4787,270.6
541.6787,272.92
541.8787,274.97
542.0787,276.737
542.2787,278.207
542.4787,279.367
542.6787,280.203
542.8787,280.734
543.0787,281.048
543.2787,281.247
543.4787,281.432
543.6787,281.702
543.8787,282.159
544.0787,282.904
544.2787,284.036
544.4787,285.657
544.6787,287.866
544.8787,290.672
545.0787,293.938
545.2787,297.515
545.4787,301.253
545.6787,305
545.8787,308.607
546.0787,311.924
546.2787,314.801
546.4787,317.087
546.6787,318.637
546.8787,319.438
547.0787,319.626
547.2787,319.346
547.4787,318.745
547.6787,317.967
547.8787,317.157
548.0787,316.461
548.2787,316.025
548.4787,315.993
548.6787,316.502
548.8787,317.576
549.0787,319.144
549.2787,321.133
549.4787,323.469
549.6787,326.081
549.8787,328.896
550.0787,331.841
550.2787,334.842
550.4787,337.827
550.6787,340.727
550.8787,343.497
551.0787,346.107
551.2787,348.528
551.4787,350.73
551.6787,352.684
551.8787,354.36
552.0787,355.728
552.2787,356.759
552.4787,357.423
552.6787,357.7
552.8787,357.627
553.0787,357.261
553.2787,356.66
553.4787,355.88
553.6787,354.98
553.8787,354.017
554.0787,353.048
554.2787,352.13
554.4787,351.321
554.6787,350.676
554.8787,350.241
555.0787,350.06
555.2787,350.177
555.4787,350.635
555.6787,351.48
555.8787,352.755
556.0787,354.503
556.2787,356.77
556.4787,359.598
556.6787,362.979
556.8787,366.772
557.0787,370.82
557.2787,374.963
557.4787,379.043
557.6787,382.9
557.8787,386.377
558.0787,389.314
558.2787,391.552
558.4787,392.934
558.6787,393.41
558.8787,393.097
559.0787,392.132
559.2787,390.647
559.4787,388.777
559.6787,386.658
559.8787,384.422
560.0787,382.206
560.2787,380.142
560.4787,378.362
560.6787,376.924
560.8787,375.802
561.0787,374.97
561.2787,374.399
561.4787,374.063
561.6787,373.932
561.8787,373.98
562.0787,374.179
562.2787,374.501
562.4787,374.918
562.6787,375.407
562.8787,375.946
563.0787,376.515
563.2787,377.092
563.4787,377.655
563.6787,378.184
563.8787,378.657
564.0787,379.053
564.2787,379.351
564.4787,379.534
564.6787,379.611
564.8787,379.607
565.0787,379.545
565.2787,379.45
565.4787,379.344
565.6787,379.252
565.8787,379.197
566.0787,379.203
566.2787,379.294
566.4787,379.486
566.6787,379.76
566.8787,380.089
567.0787,380.444
567.2787,380.798
567.4787,381.121
567.6787,381.386
567.8787,381.564
568.0787,381.628
568.2787,381.549
568.4787,381.312
568.6787,380.934
568.8787,380.44
569.0787,379.855
569.2787,379.201
569.4787,378.505
569.6787,377.79
569.8787,377.08
570.0787,376.399
570.2787,375.773
570.4787,375.209
570.6787,374.69
570.8787,374.197
571.0787,373.709
571.2787,373.206
571.4787,372.668
571.6787,372.076
571.8787,371.409
572.0787,370.646
572.2787,369.77
572.4787,368.779
572.6787,367.695
572.8787,366.541
573.0787,365.34
573.2787,364.115
573.4787,362.887
573.6787,361.681
573.8787,360.517
574.0787,359.42
574.2787,358.411
574.4787,357.509
574.6787,356.728
574.8787,356.082
575.0787,355.587
575.2787,355.257
575.4787,355.107
575.6787,355.151
575.8787,355.404
576.0787,355.881
576.2787,356.589
576.4787,357.489
576.6787,358.52
576.8787,359.622
577.0787,360.734
577.2787,361.795
577.4787,362.744
577.6787,363.521
577.8787,364.064
578.0787,364.314
578.2787,364.227
578.4787,363.834
578.6787,363.183
578.8787,362.325
579.0787,361.307
579.2787,360.18
579.4787,358.994
579.6787,357.796
579.8787,356.636
580.0787,355.565
580.2787,354.622
580.4787,353.827
580.6787,353.199
580.8787,352.755
581.0787,352.511
581.2787,352.486
581.4787,352.696
581.6787,353.16
581.8787,353.893
582.0787,354.914
582.2787,356.204
582.4787,357.697
582.6787,359.322
582.8787,361.007
583.0787,362.681
583.2787,364.274
583.4787,365.714
583.6787,366.931
583.8787,367.852
584.0787,368.41
584.2787,368.582
584.4787,368.385
584.6787,367.838
584.8787,366.962
585.0787,365.775
585.2787,364.296
585.4787,362.546
585.6787,360.543
585.8787,358.306
586.0787,355.86
586.2787,353.272
586.4787,350.632
586.6787,348.032
586.8787,345.562
587.0787,343.313
587.2787,341.375
587.4787,339.84
587.6787,338.799
587.8787,338.342
588.0787,338.537
588.2787,339.332
588.4787,340.639
588.6787,342.37
588.8787,344.436
589.0787,346.749
589.2787,349.22
589.4787,351.761
589.6787,354.283
589.8787,356.699
590.0787,358.93
590.2787,360.928
590.4787,362.651
590.6787,364.055
590.8787,365.098
591.0787,365.737
591.2787,365.929
591.4787,365.631
591.6787,364.801
591.8787,363.396
592.0787,361.45
592.2787,359.118
592.4787,356.565
592.6787,353.957
592.8787,351.459
593.0787,349.238
593.2787,347.458
593.4787,346.285
593.6787,345.886
593.8787,346.419
594.0787,347.894
594.2787,350.182
594.4787,353.149
594.6787,356.658
594.8787,360.575
595.0787,364.764
595.2787,369.091
595.4787,373.419
595.6787,377.614
595.8787,381.545
596.0787,385.131
596.2787,388.315
596.4787,391.041
596.6787,393.255
596.8787,394.9
597.0787,395.92
597.2787,396.262
597.4787,395.868
597.6787,394.683
597.8787,392.684
598.0787,390.007
598.2787,386.841
598.4787,383.37
598.6787,379.782
598.8787,376.263
599.0787,373
599.2787,370.18
599.4787,367.99
599.6787,366.615
599.8787,366.16
600.0787,366.508
600.2787,367.508
600.4787,369.006
600.6787,370.851
600.8787,372.889
601.0787,374.969
601.2787,376.937
601.4787,378.642
601.6787,379.932
601.8787,380.749
602.0787,381.167
602.2787,381.276
602.4787,381.162
602.6787,380.913
602.8787,380.615
603.0787,380.358
603.2787,380.227
603.4787,380.311
603.6787,380.692
603.8787,381.366
604.0787,382.258
604.2787,383.288
604.4787,384.377
604.6787,385.446
604.8787,386.418
605.0787,387.212
605.2787,387.751
605.4787,387.955
605.6787,387.755
605.8787,387.166
606.0787,386.237
606.2787,385.02
606.4787,383.568
606.6787,381.931
606.8787,380.161
607.0787,378.31
607.2787,376.428
607.4787,374.569
607.6787,372.774
607.8787,371.057
608.0787,369.421
608.2787,367.871
608.4787,366.411
608.6787,365.044
608.8787,363.776
609.0787,362.61
609.2787,361.55
609.4787,360.6
609.6787,359.752
609.8787,358.972
610.0787,358.222
610.2787,357.464
610.4787,356.661
610.6787,355.776
610.8787,354.771
611.0787,353.607
611.2787,352.248
611.4787,350.658
611.6787,348.845
611.8787,346.868
612.0787,344.792
612.2787,342.677
612.4787,340.588
612.6787,338.587
612.8787,336.736
613.0787,335.099
613.2787,333.737
613.4787,332.706
613.6787,331.97
613.8787,331.435
614.0787,331.007
614.2787,330.591
614.4787,330.093
614.6787,329.419
614.8787,328.474
615.0787,327.163
615.2787,325.393
615.4787,323.093
615.6787,320.321
615.8787,317.179
616.0787,313.767
616.2787,310.187
616.4787,306.54
616.6787,302.927
616.8787,299.449
617.0787,296.206
617.2787,293.301
617.4787,290.796
617.6787,288.657
617.8787,286.832
618.0787,285.27
618.2787,283.918
618.4787,282.726
618.6787,281.641
618.8787,280.613
619.0787,279.59
619.2787,278.521
619.4787,277.375
619.6787,276.149
619.8787,274.843
620.0787,273.456
620.2787,271.988
620.4787,270.439
620.6787,268.808
620.8787,267.094
621.0787,265.297
621.2787,263.418
621.4787,261.461
621.6787,259.438
621.8787,257.359
622.0787,255.236
622.2787,253.08
622.4787,250.901
622.6787,248.709
622.8787,246.517
623.0787,244.334
623.2787,242.173
623.4787,240.056
623.6787,238.006
623.8787,236.048
624.0787,234.208
624.2787,232.508
624.4787,230.975
624.6787,229.633
624.8787,228.506
625.0787,227.619
625.2787,226.97
625.4787,226.48
625.6787,226.055
625.8787,225.602
626.0787,225.026
626.2787,224.234
626.4787,223.132
626.6787,221.625
626.8787,219.621
627.0787,217.026
627.2787,213.822
627.4787,210.103
627.6787,205.972
627.8787,201.53
628.0787,196.88
628.2787,192.126
628.4787,187.368
628.6787,182.711
628.8787,178.257
629.0787,174.105
629.2787,170.309
629.4787,166.889
629.6787,163.862
629.8787,161.245
630.0787,159.056
630.2787,157.313
630.4787,156.034
630.6787,155.236
630.8787,154.938
631.0787,155.139
631.2787,155.731
631.4787,156.562
631.6787,157.479
631.8787,158.331
632.0787,158.965
632.2787,159.229
632.4787,158.971
632.6787,158.039
632.8787,156.282
633.0787,153.617
633.2787,150.175
633.4787,146.127
633.6787,141.641
633.8787,136.887
634.0787,132.035
634.2787,127.254
634.4787,122.713
634.6787,118.582
634.8787,115.029
635.0787,112.121
635.2787,109.779
635.4787,107.915
635.6787,106.439
635.8787,105.261
636.0787,104.291
636.2787,103.44
636.4787,102.62
636.6787,101.739
636.8787,100.714
637.0787,99.5314
637.2787,98.2318
637.4787,96.8558
637.6787,95.4444
637.8787,94.0386
638.0787,92.6795
638.2787,91.4079
638.4787,90.2649
638.6787,89.2914
638.8787,88.5189
639.0787,87.9234
639.2787,87.4618
639.4787,87.0903
639.6787,86.7658
639.8787,86.4446
640.0787,86.0834
640.2787,85.6388
640.4787,85.0672
640.6787,84.3254
640.8787,83.3955
641.0787,82.3266
641.2787,81.1784
641.4787,80.0105
641.6787,78.8825
641.8787,77.8543
642.0787,76.9855
642.2787,76.3357
642.4787,75.9646
642.6787,75.9299
642.8787,76.2156
643.0787,76.7136
643.2787,77.3101
643.4787,77.8913
643.6787,78.3433
643.8787,78.5522
644.0787,78.4042
644.2787,77.7855
644.4787,76.5822
644.6787,74.6957
644.8787,72.1936
645.0787,69.2455
645.2787,66.0223
645.4787,62.6952
645.6787,59.435
645.8787,56.4129
646.0787,53.7999
646.2787,51.767
646.4787,50.4851
646.6787,50.075
646.8787,50.4287
647.0787,51.3739
647.2787,52.7383
647.4787,54.3495
647.6787,56.0349
647.8787,57.6224
648.0787,58.9395
648.2787,59.8137
648.4787,60.0735
648.6787,59.6404
648.8787,58.6253
649.0787,57.1618
649.2787,55.3835
649.4787,53.4241
649.6787,51.4171
649.8787,49.4963
650.0787,47.7952
650.2787,46.4474
650.4787,45.5815
650.6787,45.2121
650.8787,45.2448
651.0787,45.5803
651.2787,46.1195
651.4787,46.7634
651.6787,47.4128
651.8787,47.9686
652.0787,48.3317
652.2787,48.4029
652.4787,48.0996
652.6787,47.462
652.8787,46.5865
653.0787,45.5695
653.2787,44.5076
653.4787,43.4973
653.6787,42.635
653.8787,42.0174
654.0787,41.7409
654.2787,41.9021
654.4787,42.5495
654.6787,43.5806
654.8787,44.8631
655.0787,46.2646
655.2787,47.6529
655.4787,48.8957
655.6787,49.8606
655.8787,50.4154
656.0787,50.4277
656.2787,49.7673
656.4787,48.4074
656.6787,46.4677
656.8787,44.0792
657.0787,41.3728
657.2787,38.4795
657.4787,35.5302
657.6787,32.6558
657.8787,29.9872
658.0787,27.6555
658.2787,25.7833
658.4787,24.3953
658.6787,23.4505
658.8787,22.9071
659.0787,22.723
659.2787,22.8562
659.4787,23.2648
659.6787,23.9068
659.8787,24.7402
660.0787,25.7231
660.2787,26.8151
660.4787,27.9835
660.6787,29.198
660.8787,30.4283
661.0787,31.6439
661.2787,32.8145
661.4787,33.9096
661.6787,34.899
661.8787,35.7522
662.0787,36.4391
662.2787,36.9506
662.4787,37.32
662.6787,37.5854
662.8787,37.7849
663.0787,37.9566
663.2787,38.1386
663.4787,38.3691
663.6787,38.6862
663.8787,39.128
664.0787,39.7299
664.2787,40.4751
664.4787,41.2997
664.6787,42.1384
664.8787,42.9257
665.0787,43.596
665.2787,44.0839
665.4787,44.324
665.6787,44.2507
665.8787,43.7987
666.0787,42.9191
666.2787,41.6718
666.4787,40.1601
666.6787,38.4873
666.8787,36.7568
667.0787,35.0718
667.2787,33.5358
667.4787,32.252
667.6787,31.3239
667.8787,30.8547
668.0787,30.8961
668.2787,31.3654
668.4787,32.158
668.6787,33.1693
668.8787,34.2949
669.0787,35.43
669.2787,36.4703
669.4787,37.311
669.6787,37.8477
669.8787,37.9794
670.0787,37.7079
670.2787,37.1532
670.4787,36.4413
670.6787,35.6983
670.8787,35.0505
671.0787,34.624
671.2787,34.5449
671.4787,34.9395
671.6787,35.9337
671.8787,37.6319
672.0787,39.9515
672.2787,42.716
672.4787,45.7482
672.6787,48.8708
672.8787,51.9065
673.0787,54.678
673.2787,57.0081
673.4787,58.7195
673.6787,59.635
673.8787,59.6351
674.0787,58.7887
674.2787,57.2031
674.4787,54.9856
674.6787,52.2433
674.8787,49.0836
675.0787,45.6136
675.2787,41.9406
675.4787,38.1719
675.6787,34.4149
675.8787,30.7836
676.0787,27.4011
676.2787,24.3911
676.4787,21.8773
676.6787,19.9836
676.8787,18.8337
677.0787,18.5512
677.2787,19.2599
677.4787,21.0837
677.6787,24.1216
677.8787,28.2186
678.0787,33.0687
678.2787,38.3643
678.4787,43.7974
678.6787,49.0602
678.8787,53.845
679.0787,57.8438
679.2787,60.7488
679.4787,62.2523
679.6787,62.1472
679.8787,60.6089
680.0787,57.9035
680.2787,54.2974
680.4787,50.0566
680.6787,45.4475
680.8787,40.7363
681.0787,36.1891
681.2787,32.0722
681.4787,28.6496
681.6787,26.0607
681.8787,24.2542
682.0787,23.1629
682.2787,22.7194
682.4787,22.8566
682.6787,23.507
682.8787,24.6035
683.0787,26.0787
683.2787,27.8653
683.4787,29.8951
683.6787,32.0864
683.8787,34.3495
684.0787,36.5943
684.2787,38.7308
684.4787,40.6689
684.6787,42.3186
684.8787,43.5899
685.0787,44.3926
685.2787,44.6369
685.4787,44.2641
685.6787,43.346
685.8787,41.9877
686.0787,40.2943
686.2787,38.3711
686.4787,36.3232
686.6787,34.2557
686.8787,32.2739
687.0787,30.4829
687.2787,28.9871
687.4787,27.8419
687.6787,27.0241
687.8787,26.503
688.0787,26.2483
688.2787,26.2294
688.4787,26.4159
688.6787,26.7772
688.8787,27.283
689.0787,27.9026
689.2787,28.6062
689.4787,29.3722
689.6787,30.1842
689.8787,31.0261
690.0787,31.8815
690.2787,32.7343
690.4787,33.5684
690.6787,34.3674
690.8787,35.1152
691.0787,35.7956
691.2787,36.3917
691.4787,36.8835
691.6787,37.2505
691.8787,37.472
692.0787,37.5274
692.2787,37.3961
692.4787,37.0574
692.6787,36.4906
692.8787,35.6752
693.0787,34.5912
693.2787,33.2647
693.4787,31.7949
693.6787,30.2876
693.8787,28.8485
694.0787,27.5833
694.2787,26.5976
694.4787,25.9973
694.6787,25.8881
694.8787,26.3755
695.0787,27.5521
695.2787,29.3526
695.4787,31.6098
695.6787,34.1547
695.8787,36.8182
696.0787,39.4313
696.2787,41.825
696.4787,43.8302
696.6787,45.278
696.8787,45.9992
697.0787,45.8771
697.2787,44.9993
697.4787,43.5033
697.6787,41.5267
697.8787,39.2072
698.0787,36.6824
698.2787,34.0898
698.4787,31.567
698.6787,29.2517
698.8787,27.2803
699.0787,25.7298
699.2787,24.5895
699.4787,23.8417
699.6787,23.4689
699.8787,23.4533
700.0787,23.7773
700.2787,24.4232
700.4787,25.3734
700.6787,26.6101
700.8787,28.1126
701.0787,29.8279
701.2787,31.6839
701.4787,33.6085
701.6787,35.5292
701.8787,37.3739
702.0787,39.0703
702.2787,40.5461
702.4787,41.7292
702.6787,42.5471
702.8787,42.9482
703.0787,42.9504
703.2787,42.5868
703.4787,41.8905
703.6787,40.8946
703.8787,39.632
704.0787,38.136
704.2787,36.4395
704.4787,34.5757
704.6787,32.5782
704.8787,30.5078
705.0787,28.4597
705.2787,26.5311
705.4787,24.8195
705.6787,23.4223
705.8787,22.4369
706.0787,21.9607
706.2787,22.0911
706.4787,22.9255
706.6787,24.5414
706.8787,26.8487
707.0787,29.6738
707.2787,32.8423
707.4787,36.1801
707.6787,39.5129
707.8787,42.6663
708.0787,45.4662
708.2787,47.7381
708.4787,49.308
708.6787,50.0672
708.8787,50.0903
709.0787,49.4844
709.2787,48.3562
709.4787,46.8124
709.6787,44.9599
709.8787,42.9054
710.0787,40.7559
710.2787,38.618
710.4787,36.5971
710.6787,34.7622
710.8787,33.1444
711.0787,31.7725
711.2787,30.6758
711.4787,29.8832
711.6787,29.4239
711.8787,29.327
712.0787,29.6215
712.2787,30.3365
712.4787,31.4872
712.6787,32.9995
712.8787,34.7644
713.0787,36.6725
713.2787,38.6148
713.4787,40.4818
713.6787,42.1644
713.8787,43.5534
714.0787,44.5396
714.2787,45.0139
714.4787,44.9214
714.6787,44.3235
714.8787,43.2967
715.0787,41.9177
715.2787,40.263
715.4787,38.4092
715.6787,36.4328
715.8787,34.4105
716.0787,32.4187
716.2787,30.5331
716.4787,28.8134
716.6787,27.3063
716.8787,26.0581
717.0787,25.1153
717.2787,24.5243
717.4787,24.3314
717.6787,24.5831
717.8787,25.3257
718.0787,26.6056
718.2787,28.4385
718.4787,30.698
718.6787,33.2172
718.8787,35.8291
719.0787,38.3667
719.2787,40.6629
719.4787,42.5508
719.6787,43.8633
719.8787,44.4334
720.0787,44.0962
720.2787,42.819
720.4787,40.7772
720.6787,38.1644
720.8787,35.1743
721.0787,32.0005
721.2787,28.8367
721.4787,25.8766
721.6787,23.3137
721.8787,21.3418
722.0787,20.1363
722.2787,19.6877
722.4787,19.879
722.6787,20.5919
722.8787,21.7081
723.0787,23.1091
723.2787,24.6768
723.4787,26.2926
723.6787,27.8383
723.8787,29.1955
724.0787,30.2749
724.2787,31.0775
724.4787,31.6217
724.6787,31.9259
724.8787,32.0086
725.0787,31.888
725.2787,31.5828
725.4787,31.1111
725.6787,30.4916
725.8787,29.7436
726.0787,28.9143
726.2787,28.0808
726.4787,27.322
726.6787,26.7166
726.8787,26.3433
727.0787,26.2809
727.2787,26.6082
727.4787,27.404
727.6787,28.7469
727.8787,30.6919
728.0787,33.1448
728.2787,35.9536
728.4787,38.9664
728.6787,42.0311
728.8787,44.9956
729.0787,47.7081
729.2787,50.0164
729.4787,51.7686
729.6787,52.8133
729.8787,53.089
730.0787,52.7137
730.2787,51.8264
730.4787,50.5665
730.6787,49.073
730.8787,47.4853
731.0787,45.9424
731.2787,44.5836
731.4787,43.548
731.6787,42.9656
731.8787,42.8438
732.0787,43.1027
732.2787,43.6608
732.4787,44.4364
732.6787,45.3479
732.8787,46.3137
733.0787,47.2522
733.2787,48.0818
733.4787,48.7208
733.6787,49.1188
733.8787,49.3409
734.0787,49.4796
734.2787,49.6271
734.4787,49.8755
734.6787,50.3172
734.8787,51.0445
735.0787,52.1496
735.2787,53.7247
735.4787,55.859
735.6787,58.535
735.8787,61.6031
736.0787,64.9055
736.2787,68.2846
736.4787,71.5826
736.6787,74.642
736.8787,77.3049
737.0787,79.4136
737.2787,80.8106
737.4787,81.3674
737.6787,81.1619
737.8787,80.3594
738.0787,79.1255
738.2787,77.6261
738.4787,76.0269
738.6787,74.4935
738.8787,73.1917
739.0787,72.2872
739.2787,71.9452
739.4787,72.2463
739.6787,73.0919
739.8787,74.3604
740.0787,75.9303
740.2787,77.6801
740.4787,79.4882
740.6787,81.2331
740.8787,82.7932
741.0787,84.0471
741.2787,84.8808
741.4787,85.2843
741.6787,85.3232
741.8787,85.0647
742.0787,84.5761
742.2787,83.9247
742.4787,83.1775
742.6787,82.402
742.8787,81.6653
743.0787,81.0346
743.2787,80.5591
743.4787,80.2206
743.6787,79.9858
743.8787,79.8215
744.0787,79.6942
744.2787,79.5705
744.4787,79.4172
744.6787,79.2008
744.8787,78.888
745.0787,78.4476
745.2787,77.9134
745.4787,77.3963
745.6787,77.0113
745.8787,76.8737
746.0787,77.0985
746.2787,77.8011
746.4787,79.0965
746.6787,81.0998
746.8787,83.9263
747.0787,87.6526
747.2787,92.1119
747.4787,97.042
747.6787,102.181
747.8787,107.266
748.0787,112.035
748.2787,116.225
748.4787,119.575
748.6787,121.823
748.8787,122.706
749.0787,122.12
749.2787,120.247
749.4787,117.303
749.6787,113.503
749.8787,109.061
750.0787,104.193
750.2787,99.1148
750.4787,94.0409
750.6787,89.1866
750.8787,84.7545
751.0787,80.807
751.2787,77.3191
751.4787,74.2646
751.6787,71.6172
751.8787,69.3506
752.0787,67.4387
752.2787,65.855
752.4787,64.5733
752.6787,63.5674
752.8787,62.7981
753.0787,62.1881
753.2787,61.6529
753.4787,61.108
753.6787,60.469
753.8787,59.6514
754.0787,58.5708
754.2787,57.1426
754.4787,55.2825
754.6787,52.9109
754.8787,50.0528
755.0787,46.8321
755.2787,43.3767
755.4787,39.8142
755.6787,36.2726
755.8787,32.8794
756.0787,29.7627
756.2787,27.0501
756.4787,24.8694
756.6787,23.3229
756.8787,22.3925
757.0787,22.0247
757.2787,22.1662
757.4787,22.7633
757.6787,23.7626
757.8787,25.1106
758.0787,26.7538
758.2787,28.6387
758.4787,30.7115
758.6787,32.9016
758.8787,35.1149
759.0787,37.2557
759.2787,39.2282
759.4787,40.9366
759.6787,42.2852
759.8787,43.1782
760.0787,43.5199
760.2787,43.2144
760.4787,42.1888
760.6787,40.5372
760.8787,38.4282
761.0787,36.0307
761.2787,33.5136
761.4787,31.0458
761.6787,28.7962
761.8787,26.9338
762.0787,25.6274
762.2787,25.0453
762.4787,25.2646
762.6787,26.1776
762.8787,27.6544
763.0787,29.5649
763.2787,31.7792
763.4787,34.1674
763.6787,36.5994
763.8787,38.9453
764.0787,41.075
764.2787,42.8649
764.4787,44.263
764.6787,45.2635
764.8787,45.8609
765.0787,46.0503
765.2787,45.8263
765.4787,45.1837
765.6787,44.1172
765.8787,42.6218
766.0787,40.6922
766.2787,38.3633
766.4787,35.7864
766.6787,33.134
766.8787,30.5785
767.0787,28.2922
767.2787,26.4477
767.4787,25.2173
767.6787,24.7734
767.8787,25.2884
768.0787,26.9235
768.2787,29.6307
768.4787,33.1778
768.6787,37.326
768.8787,41.8366
769.0787,46.4709
769.2787,50.9902
769.4787,55.1558
769.6787,58.7289
769.8787,61.471
770.0787,63.204
770.2787,63.9997
770.4787,63.994
770.6787,63.323
770.8787,62.1227
771.0787,60.5289
771.2787,58.6779
771.4787,56.7054
771.6787,54.7475
771.8787,52.9385
772.0787,51.3597
772.2787,50.0299
772.4787,48.964
772.6787,48.1772
772.8787,47.6845
773.0787,47.5011
773.2787,47.6419
773.4787,48.1221
773.6787,48.9567
773.8787,50.1477
774.0787,51.6217
774.2787,53.2793
774.4787,55.0207
774.6787,56.7463
774.8787,58.3566
775.0787,59.7517
775.2787,60.8322
775.4787,61.4984
775.6787,61.6519
775.8787,61.2722
776.0787,60.4586
776.2787,59.3207
776.4787,57.9681
776.6787,56.5104
776.8787,55.0572
777.0787,53.7182
777.2787,52.6028
777.4787,51.8208
777.6787,51.4678
777.8787,51.5322
778.0787,51.9532
778.2787,52.6694
778.4787,53.6196
778.6787,54.7424
778.8787,55.9766
779.0787,57.2608
779.2787,58.5339
779.4787,59.7347
779.6787,60.8208
779.8787,61.7871
780.0787,62.6327
780.2787,63.3568
780.4787,63.9584
780.6787,64.4368
780.8787,64.7911
781.0787,65.0204
781.2787,65.1239
781.4787,65.1024
781.6787,64.9728
781.8787,64.7616
782.0787,64.4956
782.2787,64.2013
782.4787,63.9055
782.6787,63.6348
782.8787,63.4157
783.0787,63.2751
783.2787,63.2395
783.4787,63.3262
783.6787,63.5297
783.8787,63.8409
784.0787,64.2509
784.2787,64.7505
784.4787,65.3308
784.6787,65.9827
784.8787,66.6972
785.0787,67.4652
785.2787,68.2779
785.4787,69.129
785.6787,70.0141
785.8787,70.9288
786.0787,71.8688
786.2787,72.8297
786.4787,73.807
786.6787,74.7964
786.8787,75.7936
787.0787,76.7941
787.2787,77.7833
787.4787,78.7157
787.6787,79.5397
787.8787,80.2041
788.0787,80.6573
788.2787,80.8481
788.4787,80.7249
788.6787,80.2364
788.8787,79.3312
789.0787,77.9649
789.2787,76.217
789.4787,74.2716
789.6787,72.3162
789.8787,70.5383
790.0787,69.1253
790.2787,68.2647
790.4787,68.144
790.6787,68.9506
790.8787,70.8721
791.0787,74.0165
791.2787,78.2056
791.4787,83.1972
791.6787,88.7486
791.8787,94.6175
792.0787,100.561
792.2787,106.338
792.4787,111.704
792.6787,116.418
792.8787,120.246
793.0787,123.125
793.2787,125.166
793.4787,126.483
793.6787,127.194
793.8787,127.414
794.0787,127.259
794.2787,126.845
794.4787,126.287
794.6787,125.703
794.8787,125.192
795.0787,124.789
795.2787,124.513
795.4787,124.382
795.6787,124.414
795.8787,124.627
796.0787,125.04
796.2787,125.671
796.4787,126.538
796.6787,127.658
796.8787,129.019
797.0787,130.576
797.2787,132.282
797.4787,134.092
797.6787,135.958
797.8787,137.834
798.0787,139.675
798.2787,141.432
798.4787,143.06
798.6787,144.521
798.8787,145.808
799.0787,146.929
799.2787,147.888
799.4787,148.692
799.6787,149.346
799.8787,149.855
800.0787,150.226
800.2787,150.463
800.4787,150.574
800.6787,150.593
800.8787,150.589
801.0787,150.633
801.2787,150.796
801.4787,151.148
801.6787,151.76
801.8787,152.703
802.0787,154.047
802.2787,155.864
802.4787,158.192
802.6787,160.91
802.8787,163.843
803.0787,166.817
803.2787,169.66
803.4787,172.196
803.6787,174.253
803.8787,175.656
804.0787,176.233
804.2787,175.813
804.4787,174.409
804.6787,172.263
804.8787,169.631
805.0787,166.769
805.2787,163.935
805.4787,161.383
805.6787,159.37
805.8787,158.154
806.0787,157.99
806.2787,159.073
806.4787,161.264
806.6787,164.316
806.8787,167.977
807.0787,171.998
807.2787,176.131
807.4787,180.125
807.6787,183.73
807.8787,186.698
808.0787,188.782
808.2787,189.87
808.4787,190.023
808.6787,189.317
808.8787,187.826
809.0787,185.625
809.2787,182.788
809.4787,179.389
809.6787,175.503
809.8787,171.205
810.0787,166.584
810.2787,161.808
810.4787,157.074
810.6787,152.578
810.8787,148.516
811.0787,145.085
811.2787,142.481
811.4787,140.9
811.6787,140.538
811.8787,141.587
812.0787,144.03
812.2787,147.578
812.4787,151.922
812.6787,156.754
812.8787,161.764
813.0787,166.645
813.2787,171.088
813.4787,174.784
813.6787,177.424
813.8787,178.759
814.0787,178.849
814.2787,177.866
814.4787,175.977
814.6787,173.353
814.8787,170.162
815.0787,166.575
815.2787,162.761
815.4787,158.888
815.6787,155.126
815.8787,151.595
816.0787,148.357
816.2787,145.468
816.4787,142.985
816.6787,140.964
816.8787,139.463
817.0787,138.538
817.2787,138.246
817.4787,138.645
817.6787,139.765
817.8787,141.513
818.0787,143.75
818.2787,146.341
818.4787,149.148
818.6787,152.035
818.8787,154.863
819.0787,157.496
819.2787,159.798
819.4787,161.633
819.6787,162.944
819.8787,163.769
820.0787,164.151
820.2787,164.134
820.4787,163.761
820.6787,163.077
820.8787,162.124
821.0787,160.947
821.2787,159.588
821.4787,158.098
821.6787,156.549
821.8787,155.025
822.0787,153.606
822.2787,152.376
822.4787,151.416
822.6787,150.808
822.8787,150.635
823.0787,150.978
823.2787,151.916
823.4787,153.438
823.6787,155.429
823.8787,157.769
824.0787,160.338
824.2787,163.014
824.4787,165.678
824.6787,168.21
824.8787,170.488
825.0787,172.393
825.2787,173.83
825.4787,174.825
825.6787,175.432
825.8787,175.709
826.0787,175.712
826.2787,175.497
826.4787,175.12
826.6787,174.638
826.8787,174.107
827.0787,173.582
827.2787,173.104
827.4787,172.694
827.6787,172.376
827.8787,172.17
828.0787,172.099
828.2787,172.185
828.4787,172.451
828.6787,172.917
828.8787,173.606
829.0787,174.526
829.2787,175.629
829.4787,176.853
829.6787,178.137
829.8787,179.42
830.0787,180.64
830.2787,181.735
830.4787,182.644
830.6787,183.307
830.8787,183.663
831.0787,183.698
831.2787,183.44
831.4787,182.915
831.6787,182.153
831.8787,181.18
832.0787,180.024
832.2787,178.714
832.4787,177.277
832.6787,175.742
832.8787,174.146
833.0787,172.566
833.2787,171.082
833.4787,169.778
833.6787,168.735
833.8787,168.035
834.0787,167.761
834.2787,167.995
834.4787,168.818
834.6787,170.306
834.8787,172.422
835.0787,175.043
835.2787,178.044
835.4787,181.299
835.6787,184.685
835.8787,188.074
836.0787,191.344
836.2787,194.367
836.4787,197.02
836.6787,199.214
836.8787,200.967
837.0787,202.309
837.2787,203.275
837.4787,203.897
837.6787,204.208
837.8787,204.24
838.0787,204.026
838.2787,203.6
838.4787,202.998
838.6787,202.304
838.8787,201.635
839.0787,201.107
839.2787,200.835
839.4787,200.935
839.6787,201.525
839.8787,202.719
840.0787,204.635
840.2787,207.387
840.4787,211.003
840.6787,215.318
840.8787,220.141
841.0787,225.282
841.2787,230.549
841.4787,235.753
841.6787,240.703
841.8787,245.207
842.0787,249.075
842.2787,252.135
842.4787,254.369
842.6787,255.843
842.8787,256.622
843.0787,256.771
843.2787,256.355
843.4787,255.439
843.6787,254.089
843.8787,252.37
844.0787,250.347
844.2787,248.118
844.4787,245.834
844.6787,243.652
844.8787,241.728
845.0787,240.22
845.2787,239.284
845.4787,239.078
845.6787,239.757
845.8787,241.48
846.0787,244.362
846.2787,248.26
846.4787,252.921
846.6787,258.096
846.8787,263.534
847.0787,268.985
847.2787,274.198
847.4787,278.923
847.6787,282.908
847.8787,285.908
848.0787,287.811
848.2787,288.695
848.4787,288.646
848.6787,287.754
848.8787,286.107
849.0787,283.793
849.2787,280.9
849.4787,277.517
849.6787,273.733
849.8787,269.643
850.0787,265.383
850.2787,261.103
850.4787,256.949
850.6787,253.07
850.8787,249.613
851.0787,246.728
851.2787,244.56
851.4787,243.259
851.6787,242.965
851.8787,243.628
852.0787,245.007
852.2787,246.853
852.4787,248.917
852.6787,250.949
852.8787,252.699
853.0787,253.918
853.2787,254.358
853.4787,253.767
853.6787,251.972
853.8787,249.05
854.0787,245.137
854.2787,240.365
854.4787,234.869
854.6787,228.782
854.8787,222.237
855.0787,215.369
855.2787,208.311
855.4787,201.196
855.6787,194.147
855.8787,187.281
856.0787,180.713
856.2787,174.558
856.4787,168.934
856.6787,163.954
856.8787,159.736
857.0787,156.395
857.2787,154.046
857.4787,152.717
857.6787,152.224
857.8787,152.353
858.0787,152.889
858.2787,153.615
858.4787,154.319
858.6787,154.785
858.8787,154.797
859.0787,154.142
859.2787,152.629
859.4787,150.297
859.6787,147.307
859.8787,143.821
860.0787,140
860.2787,136.006
860.4787,132.001
860.6787,128.147
860.8787,124.605
861.0787,121.536
861.2787,119.009
861.4787,116.939
861.6787,115.225
861.8787,113.768
862.0787,112.469
862.2787,111.228
862.4787,109.944
862.6787,108.519
862.8787,106.852
863.0787,104.861
863.2787,102.562
863.4787,100.004
863.6787,97.2394
863.8787,94.319
864.0787,91.2938
864.2787,88.2148
864.4787,85.1331
864.6787,82.0997
864.8787,79.1651
865.0787,76.3658
865.2787,73.7218
865.4787,71.2521
865.6787,68.9759
865.8787,66.9123
866.0787,65.0806
866.2787,63.4997
866.4787,62.1888
866.6787,61.1671
866.8787,60.4397
867.0787,59.9595
867.2787,59.6669
867.4787,59.5027
867.6787,59.4074
867.8787,59.3216
868.0787,59.1858
868.2787,58.9407
868.4787,58.5268
868.6787,57.8881
868.8787,57.0199
869.0787,55.9568
869.2787,54.7345
869.4787,53.3887
869.6787,51.9552
869.8787,50.4697
870.0787,48.9679
870.2787,47.4854
870.4787,46.0581
870.6787,44.7092
870.8787,43.4331
871.0787,42.2201
871.2787,41.0602
871.4787,39.9436
871.6787,38.8606
871.8787,37.8013
872.0787,36.7558
872.2787,35.7144
872.4787,34.6704
872.6787,33.6442
872.8787,32.6698
873.0787,31.7811
873.2787,31.012
873.4787,30.3966
873.6787,29.9687
873.8787,29.7624
874.0787,29.8117
874.2787,30.1497
874.4787,30.7654
874.6787,31.5822
874.8787,32.5177
875.0787,33.49
875.2787,34.4168
875.4787,35.2159
875.6787,35.8053
875.8787,36.1026
876.0787,36.0258
876.2787,35.5163
876.4787,34.6303
876.6787,33.4592
876.8787,32.0941
877.0787,30.6263
877.2787,29.1468
877.4787,27.7471
877.6787,26.5182
877.8787,25.5515
878.0787,24.9346
878.2787,24.6855
878.4787,24.7566
878.6787,25.0977
878.8787,25.6586
879.0787,26.3894
879.2787,27.2397
879.4787,28.1594
879.6787,29.0985
879.8787,30.0067
880.0787,30.8403
880.2787,31.5736
880.4787,32.1841
880.6787,32.6491
880.8787,32.9461
881.0787,33.0526
881.2787,32.9459
881.4787,32.6034
881.6787,32.0027
881.8787,31.1285
882.0787,30.0375
882.2787,28.8275
882.4787,27.5969
882.6787,26.4438
882.8787,25.4666
883.0787,24.7635
883.2787,24.4328
883.4787,24.5727
883.6787,25.2803
883.8787,26.563
884.0787,28.2808
884.2787,30.2802
884.4787,32.4075
884.6787,34.5092
884.8787,36.4316
885.0787,38.0211
885.2787,39.124
885.4787,39.5868
885.6787,39.2942
885.8787,38.3316
886.0787,36.8495
886.2787,34.9983
886.4787,32.9286
886.6787,30.791
886.8787,28.7359
887.0787,26.9139
887.2787,25.4754
887.4787,24.5669
887.6787,24.2438
887.8787,24.4745
888.0787,25.2235
888.2787,26.4556
888.4787,28.1354
888.6787,30.2278
888.8787,32.6974
889.0787,35.5088
889.2787,38.6268
889.4787,41.9884
889.6787,45.4539
889.8787,48.8698
890.0787,52.0829
890.2787,54.9399
890.4787,57.2875
890.6787,58.9723
890.8787,59.8411
891.0787,59.7405
891.2787,58.5414
891.4787,56.3396
891.6787,53.3543
891.8787,49.8055
892.0787,45.9137
892.2787,41.8989
892.4787,37.9815
892.6787,34.3816
892.8787,31.3195
893.0787,29.0134
893.2787,27.5628
893.4787,26.8867
893.6787,26.8886
893.8787,27.4719
894.0787,28.5402
894.2787,29.9971
894.4787,31.746
894.6787,33.6907
894.8787,35.7345
895.0787,37.7824
895.2787,39.7459
895.4787,41.5381
895.6787,43.0724
895.8787,44.262
896.0787,45.0201
896.2787,45.26
896.4787,44.895
896.6787,43.8382
896.8787,42.0129
897.0787,39.5082
897.2787,36.553
897.4787,33.3799
897.6787,30.2221
897.8787,27.3124
898.0787,24.8837
898.2787,23.169
898.4787,22.4011
898.6787,22.8125
898.8787,24.4996
899.0787,27.2436
899.2787,30.7811
899.4787,34.8489
899.6787,39.1834
899.8787,43.5215
900.0787,47.5997
900.2787,51.1547
900.4787,53.9232
900.6787,55.6794
900.8787,56.4694
901.0787,56.4583
901.2787,55.8121
901.4787,54.6965
901.6787,53.2771
901.8787,51.72
902.0787,50.1907
902.2787,48.8551
902.4787,47.8755
902.6787,47.3015
902.8787,47.048
903.0787,47.0214
903.2787,47.1287
903.4787,47.2765
903.6787,47.3716
903.8787,47.3207
904.0787,47.0305
904.2787,46.4077
904.4787,45.3984
904.6787,44.0817
904.8787,42.5643
905.0787,40.9532
905.2787,39.3554
905.4787,37.8777
905.6787,36.6271
905.8787,35.7106
906.0787,35.235
906.2787,35.2939
906.4787,35.8365
906.6787,36.723
906.8787,37.8124
907.0787,38.9637
907.2787,40.0359
907.4787,40.888
907.6787,41.3789
907.8787,41.3676
908.0787,40.7148
908.2787,39.3882
908.4787,37.5298
908.6787,35.2976
908.8787,32.8493
909.0787,30.3428
909.2787,27.9361
909.4787,25.787
909.6787,24.0533
909.8787,22.893
910.0787,22.4244
910.2787,22.5816
910.4787,23.2454
910.6787,24.2966
910.8787,25.6159
911.0787,27.0839
911.2787,28.5815
911.4787,29.9893
911.6787,31.1882
911.8787,32.0644
912.0787,32.594
912.2787,32.8243
912.4787,32.8047
912.6787,32.5847
912.8787,32.2138
913.0787,31.7412
913.2787,31.2164
913.4787,30.6888
913.6787,30.2078
913.8787,29.8033
914.0787,29.4652
914.2787,29.1782
914.4787,28.9273
914.6787,28.6972
914.8787,28.4728
915.0787,28.2388
915.2787,27.9801
915.4787,27.6815
915.6787,27.3313
915.8787,26.938
916.0787,26.5182
916.2787,26.0882
916.4787,25.6642
916.6787,25.2627
916.8787,24.9001
917.0787,24.5926
917.2787,24.3566
917.4787,24.2077
917.6787,24.1451
917.8787,24.152
918.0787,24.2107
918.2787,24.3039
918.4787,24.4139
918.6787,24.5232
918.8787,24.6143
919.0787,24.6697
919.2787,24.6719
919.4787,24.622
919.6787,24.568
919.8787,24.5652
920.0787,24.6689
920.2787,24.9346
920.4787,25.4174
920.6787,26.1727
920.8787,27.2558
921.0787,28.7221
921.2787,30.6088
921.4787,32.8215
921.6787,35.2076
921.8787,37.6143
922.0787,39.8888
922.2787,41.8782
922.4787,43.4297
922.6787,44.3904
922.8787,44.6074
923.0787,43.9337
923.2787,42.3822
923.4787,40.1459
923.6787,37.4271
923.8787,34.4283
924.0787,31.352
924.2787,28.4005
924.4787,25.7762
924.6787,23.6816
924.8787,22.3191
925.0787,21.8101
925.2787,22.0433
925.4787,22.8653
925.6787,24.1228
925.8787,25.6626
926.0787,27.3314
926.2787,28.9758
926.4787,30.4426
926.6787,31.5785
926.8787,32.2483
927.0787,32.4658
927.2787,32.3181
927.4787,31.8929
927.6787,31.278
927.8787,30.5609
928.0787,29.8293
928.2787,29.1711
928.4787,28.6738
928.6787,28.4239
928.8787,28.4674
929.0787,28.8014
929.2787,29.4197
929.4787,30.3162
929.6787,31.485
929.8787,32.92
930.0787,34.615
930.2787,36.5641
930.4787,38.7612
930.6787,41.181
930.8787,43.7386
931.0787,46.3377
931.2787,48.8822
931.4787,51.2756
931.6787,53.4217
931.8787,55.2243
932.0787,56.587
932.2787,57.4135
932.4787,57.6186
932.6787,57.2119
932.8787,56.252
933.0787,54.7977
933.2787,52.9081
933.4787,50.6422
933.6787,48.0587
933.8787,45.2167
934.0787,42.1752
934.2787,38.9936
934.4787,35.7522
934.6787,32.5567
934.8787,29.5145
935.0787,26.7332
935.2787,24.32
935.4787,22.3825
935.6787,21.028
935.8787,20.3639
936.0787,20.4977
936.2787,21.4792
936.4787,23.1808
936.6787,25.4402
936.8787,28.0953
937.0787,30.9842
937.2787,33.9447
937.4787,36.8147
937.6787,39.432
937.8787,41.6348
938.0787,43.2771
938.2787,44.3527
938.4787,44.9254
938.6787,45.0592
938.8787,44.8187
939.0787,44.2681
939.2787,43.4716
939.4787,42.4936
939.6787,41.3983
939.8787,40.2498
940.0787,39.1002
940.2787,37.9881
940.4787,36.951
940.6787,36.0265
940.8787,35.2523
941.0787,34.666
941.2787,34.3051
941.4787,34.2073
941.6787,34.4102
941.8787,34.9234
942.0787,35.6754
942.2787,36.5803
942.4787,37.5521
942.6787,38.5047
942.8787,39.3521
943.0787,40.0083
943.2787,40.3873
943.4787,40.4031
943.6787,39.9818
943.8787,39.1429
944.0787,37.9491
944.2787,36.4636
944.4787,34.7493
944.6787,32.8693
944.8787,30.8867
945.0787,28.8644
945.2787,26.8655
945.4787,24.9534
945.6787,23.1994
945.8787,21.6837
946.0787,20.4866
946.2787,19.6888
946.4787,19.3708
946.6787,19.613
946.8787,20.4961
947.0787,22.1005
947.2787,24.5065
947.4787,27.7153
947.6787,31.5258
947.8787,35.7058
948.0787,40.0228
948.2787,44.2443
948.4787,48.1379
948.6787,51.4712
948.8787,54.0116
949.0787,55.5268
949.2787,55.8291
949.4787,55.0234
949.6787,53.331
949.8787,50.9739
950.0787,48.1739
950.2787,45.1529
950.4787,42.1327
950.6787,39.3352
950.8787,36.9822
951.0787,35.2885
951.2787,34.3262
951.4787,34.035
951.6787,34.3499
951.8787,35.2058
952.0787,36.5376
952.2787,38.2803
952.4787,40.3686
952.6787,42.7375
952.8787,45.3219
953.0787,48.0452
953.2787,50.8067
953.4787,53.5028
953.6787,56.03
953.8787,58.2844
954.0787,60.1627
954.2787,61.561
954.4787,62.3758
954.6787,62.5034
954.8787,61.8746
955.0787,60.5973
955.2787,58.8364
955.4787,56.7569
955.6787,54.5237
955.8787,52.3017
956.0787,50.2558
956.2787,48.5511
956.4787,47.3523
956.6787,46.8146
956.8787,46.9529
957.0787,47.6773
957.2787,48.8956
957.4787,50.5156
957.6787,52.445
957.8787,54.5916
958.0787,56.8633
958.2787,59.1676
958.4787,61.4129
958.6787,63.5367
958.8787,65.5247
959.0787,67.3674
959.2787,69.0549
959.4787,70.5777
959.6787,71.926
959.8787,73.0902
960.0787,74.0605
960.2787,74.8272
960.4787,75.3885
960.6787,75.7722
960.8787,76.0133
961.0787,76.1468
961.2787,76.2077
961.4787,76.2312
961.6787,76.2521
961.8787,76.3055
962.0787,76.4266
962.2787,76.6485
962.4787,76.9893
962.6787,77.4581
962.8787,78.064
963.0787,78.8159
963.2787,79.723
963.4787,80.7943
963.6787,82.0388
963.8787,83.4656
964.0787,85.0826
964.2787,86.858
964.4787,88.7118
964.6787,90.5612
964.8787,92.3232
965.0787,93.9149
965.2787,95.2534
965.4787,96.2557
965.6787,96.839
965.8787,96.9205
966.0787,96.4631
966.2787,95.5534
966.4787,94.2985
966.6787,92.8056
966.8787,91.1817
967.0787,89.5339
967.2787,87.9695
967.4787,86.5954
967.6787,85.5189
967.8787,84.8294
968.0787,84.5044
968.2787,84.477
968.4787,84.6803
968.6787,85.0472
968.8787,85.5109
969.0787,86.0044
969.2787,86.4608
969.4787,86.8132
969.6787,86.9987
969.8787,87.0284
970.0787,86.9765
970.2787,86.919
970.4787,86.9322
970.6787,87.0921
970.8787,87.475
971.0787,88.157
971.2787,89.2141
971.4787,90.722
971.6787,92.6998
971.8787,95.0646
972.0787,97.7233
972.2787,100.582
972.4787,103.548
972.6787,106.528
972.8787,109.427
973.0787,112.154
973.2787,114.614
973.4787,116.733
973.6787,118.519
973.8787,119.998
974.0787,121.197
974.2787,122.142
974.4787,122.86
974.6787,123.378
974.8787,123.723
975.0787,123.92
975.2787,123.999
975.4787,123.992
975.6787,123.937
975.8787,123.872
976.0787,123.834
976.2787,123.861
976.4787,123.991
976.6787,124.261
976.8787,124.709
977.0787,125.372
977.2787,126.273
977.4787,127.422
977.6787,128.824
977.8787,130.488
978.0787,132.421
978.2787,134.63
978.4787,137.121
978.6787,139.904
978.8787,142.984
979.0787,146.322
979.2787,149.769
979.4787,153.157
979.6787,156.318
979.8787,159.086
980.0787,161.293
980.2787,162.772
980.4787,163.356
980.6787,162.877
980.8787,161.226
981.0787,158.601
981.2787,155.306
981.4787,151.646
981.6787,147.923
981.8787,144.442
982.0787,141.507
982.2787,139.421
982.4787,138.488
982.6787,138.987
982.8787,140.872
983.0787,143.865
983.2787,147.682
983.4787,152.041
983.6787,156.659
983.8787,161.252
984.0787,165.539
984.2787,169.235
984.4787,172.062
984.6787,173.91
984.8787,174.912
985.0787,175.22
985.2787,174.987
985.4787,174.362
985.6787,173.498
985.8787,172.547
986.0787,171.66
986.2787,170.989
986.4787,170.639
986.6787,170.575
986.8787,170.737
987.0787,171.068
987.2787,171.506
987.4787,171.993
987.6787,172.469
987.8787,172.875
988.0787,173.151
988.2787,173.246
988.4787,173.158
988.6787,172.907
988.8787,172.511
989.0787,171.991
989.2787,171.365
989.4787,170.652
989.6787,169.872
989.8787,169.044
990.0787,168.185
990.2787,167.282
990.4787,166.302
990.6787,165.206
990.8787,163.96
991.0787,162.525
991.2787,160.867
991.4787,158.949
991.6787,156.735
991.8787,154.188
992.0787,151.342
992.2787,148.33
992.4787,145.3
992.6787,142.395
992.8787,139.761
993.0787,137.543
993.2787,135.886
993.4787,134.935
993.6787,134.836
993.8787,135.652
994.0787,137.188
994.2787,139.198
994.4787,141.434
994.6787,143.651
994.8787,145.6
995.0787,147.035
995.2787,147.711
995.4787,147.378
995.6787,145.842
995.8787,143.239
996.0787,139.853
996.2787,135.963
996.4787,131.851
996.6787,127.799
996.8787,124.086
997.0787,120.996
997.2787,118.809
997.4787,117.789
997.6787,117.933
997.8787,119.016
998.0787,120.805
998.2787,123.071
998.4787,125.58
998.6787,128.102
998.8787,130.406
999.0787,132.259
999.2787,133.432
999.4787,133.823
999.6787,133.525
999.8787,132.65
1000.0787,131.309
1000.2787,129.612
1000.4787,127.673
1000.6787,125.601
1000.8787,123.508
1001.0787,121.506
1001.2787,119.674
1001.4787,117.998
1001.6787,116.444
1001.8787,114.98
1002.0787,113.572
1002.2787,112.186
1002.4787,110.79
1002.6787,109.351
1002.8787,107.835
1003.0787,106.221
1003.2787,104.568
1003.4787,102.966
1003.6787,101.506
1003.8787,100.277
1004.0787,99.3687
1004.2787,98.8722
1004.4787,98.8772
1004.6787,99.4736
1004.8787,100.741
1005.0787,102.61
1005.2787,104.895
1005.4787,107.412
1005.6787,109.973
1005.8787,112.393
1006.0787,114.486
1006.2787,116.064
1006.4787,116.943
1006.6787,116.939
1006.8787,116.051
1007.0787,114.532
1007.2787,112.651
1007.4787,110.678
1007.6787,108.884
1007.8787,107.539
1008.0787,106.914
1008.2787,107.278
1008.4787,108.901
1008.6787,111.899
1008.8787,115.975
1009.0787,120.766
1009.2787,125.909
1009.4787,131.041
1009.6787,135.798
1009.8787,139.818
1010.0787,142.737
1010.2787,144.193
1010.4787,143.912
1010.6787,142.098
1010.8787,139.108
1011.0787,135.3
1011.2787,131.034
1011.4787,126.667
1011.6787,122.558
1011.8787,119.065
1012.0787,116.547
1012.2787,115.33
1012.4787,115.4
1012.6787,116.529
1012.8787,118.488
1013.0787,121.046
1013.2787,123.973
1013.4787,127.038
1013.6787,130.01
1013.8787,132.661
1014.0787,134.763
1014.2787,136.234
1014.4787,137.148
1014.6787,137.589
1014.8787,137.641
1015.0787,137.386
1015.2787,136.91
1015.4787,136.296
1015.6787,135.626
1015.8787,134.985
1016.0787,134.436
1016.2787,134.003
1016.4787,133.703
1016.6787,133.556
1016.8787,133.579
1017.0787,133.79
1017.2787,134.209
1017.4787,134.852
1017.6787,135.74
1017.8787,136.87
1018.0787,138.166
1018.2787,139.536
1018.4787,140.885
1018.6787,142.12
1018.8787,143.147
1019.0787,143.871
1019.2787,144.201
1019.4787,144.04
1019.6787,143.315
1019.8787,142.087
1020.0787,140.48
1020.2787,138.62
1020.4787,136.632
1020.6787,134.639
1020.8787,132.769
1021.0787,131.145
1021.2787,129.892
1021.4787,129.128
1021.6787,128.857
1021.8787,128.987
1022.0787,129.425
1022.2787,130.076
1022.4787,130.848
1022.6787,131.645
1022.8787,132.375
1023.0787,132.944
1023.2787,133.258
1023.4787,133.269
1023.6787,132.993
1023.8787,132.449
1024.0787,131.658
1024.2787,130.639
1024.4788,129.412
1024.6787,127.997
1024.8787,126.414
1025.0787,124.683
1025.2787,122.83
1025.4788,120.893
1025.6787,118.912
1025.8787,116.929
1026.0787,114.985
1026.2787,113.121
1026.4788,111.376
1026.6787,109.793
1026.8787,108.412
1027.0787,107.262
1027.2787,106.312
1027.4788,105.516
1027.6787,104.826
1027.8787,104.197
1028.0787,103.58
1028.2787,102.929
1028.4788,102.198
1028.6787,101.338
1028.8787,100.307
1029.0787,99.0901
1029.2787,97.6914
1029.4788,96.113
1029.6787,94.3577
1029.8787,92.4284
1030.0787,90.3278
1030.2787,88.0587
1030.4788,85.6238
1030.6787,83.028
1030.8787,80.3168
1031.0787,77.5729
1031.2787,74.8801
1031.4788,72.3224
1031.6787,69.9837
1031.8787,67.9481
1032.0787,66.2994
1032.2787,65.1215
1032.4788,64.4972
1032.6787,64.4299
1032.8787,64.8012
1033.0787,65.4821
1033.2787,66.3438
1033.4788,67.2573
1033.6787,68.0936
1033.8787,68.7239
1034.0787,69.0192
1034.2787,68.8506
1034.4788,68.1345
1034.6787,66.9075
1034.8787,65.2264
1035.0787,63.1476
1035.2787,60.7279
1035.4788,58.0238
1035.6787,55.0921
1035.8787,51.9893
1036.0787,48.7721
1036.2787,45.4987
1036.4788,42.2348
1036.6787,39.0484
1036.8787,36.0076
1037.0787,33.1804
1037.2787,30.6347
1037.4788,28.4385
1037.6787,26.66
1037.8787,25.3671
1038.0787,24.621
1038.2787,24.4241
1038.4788,24.7478
1038.6787,25.5637
1038.8787,26.843
1039.0787,28.5571
1039.2787,30.6774
1039.4788,33.1752
1039.6787,36.0219
1039.8787,39.1849
1040.0787,42.5619
1040.2787,45.9901
1040.4788,49.305
1040.6787,52.3419
1040.8787,54.9361
1041.0787,56.9229
1041.2787,58.1378
1041.4788,58.4159
1041.6787,57.5962
1041.8787,55.6816
1042.0787,52.907
1042.2787,49.525
1042.4788,45.7881
1042.6787,41.9487
1042.8787,38.2594
1043.0787,34.9727
1043.2787,32.3412
1043.4788,30.617
1043.6787,29.9458
1043.8787,30.2237
1044.0787,31.3108
1044.2787,33.0673
1044.4788,35.3532
1044.6787,38.0287
1044.8787,40.9539
1045.0787,43.989
1045.2787,46.9941
1045.4788,49.8534
1045.6787,52.5476
1045.8787,55.0816
1046.0787,57.4606
1046.2787,59.6896
1046.4788,61.7735
1046.6787,63.7174
1046.8787,65.5264
1047.0787,67.2054
1047.2787,68.7591
1047.4788,70.19
1047.6787,71.4995
1047.8787,72.6891
1048.0787,73.7602
1048.2787,74.7143
1048.4788,75.5529
1048.6787,76.2773
1048.8787,76.8891
1049.0787,77.3898
1049.2787,77.7828
1049.4788,78.0727
1049.6787,78.2639
1049.8787,78.3611
1050.0787,78.3689
1050.2787,78.2919
1050.4788,78.1346
1050.6787,77.9016
1050.8787,77.5977
1051.0787,77.2363
1051.2787,76.8399
1051.4788,76.4313
1051.6787,76.0337
1051.8787,75.6699
1052.0787,75.3629
1052.2787,75.1357
1052.4788,75.0113
1052.6787,75.0127
1052.8787,75.1673
1053.0787,75.5101
1053.2787,76.0769
1053.4788,76.9036
1053.6787,78.0259
1053.8787,79.4796
1054.0787,81.3005
1054.2787,83.5244
1054.4788,86.1872
1054.6787,89.2849
1054.8787,92.7022
1055.0787,96.3041
1055.2787,99.9556
1055.4788,103.522
1055.6787,106.868
1055.8787,109.858
1056.0787,112.358
1056.2787,114.233
1056.4788,115.39
1056.6787,115.931
1056.8787,116.016
1057.0787,115.804
1057.2787,115.456
1057.4788,115.132
1057.6787,114.99
1057.8787,115.19
1058.0787,115.892
1058.2787,117.235
1058.4788,119.179
1058.6787,121.605
1058.8787,124.394
1059.0787,127.426
1059.2787,130.579
1059.4788,133.734
1059.6787,136.772
1059.8787,139.571
1060.0787,142.019
1060.2787,144.091
1060.4788,145.83
1060.6787,147.28
1060.8787,148.485
1061.0787,149.489
1061.2787,150.336
1061.4788,151.069
1061.6787,151.733
1061.8787,152.372
1062.0787,153.017
1062.2787,153.687
1062.4788,154.401
1062.6787,155.177
1062.8787,156.034
1063.0787,156.991
1063.2787,158.065
1063.4788,159.275
1063.6787,160.64
1063.8787,162.157
1064.0787,163.787
1064.2787,165.489
1064.4788,167.221
1064.6787,168.941
1064.8787,170.609
1065.0787,172.181
1065.2787,173.618
1065.4788,174.876
1065.6787,175.932
1065.8787,176.809
1066.0787,177.539
1066.2787,178.152
1066.4788,178.68
1066.6787,179.153
1066.8787,179.602
1067.0787,180.059
1067.2787,180.554
1067.4788,181.118
1067.6787,181.783
1067.8787,182.579
1068.0787,183.538
1068.2787,184.691
1068.4788,186.069
1068.6787,187.703
1068.8787,189.624
1069.0787,191.863
1069.2787,194.439
1069.4788,197.285
1069.6787,200.301
1069.8787,203.385
1070.0787,206.438
1070.2787,209.358
1070.4788,212.045
1070.6787,214.398
1070.8787,216.316
1071.0787,217.713
1071.2787,218.672
1071.4788,219.373
1071.6787,220.002
1071.8787,220.741
1072.0787,221.776
1072.2787,223.288
1072.4788,225.464
1072.6787,228.486
1072.8787,232.525
1073.0787,237.509
1073.2787,243.142
1073.4788,249.125
1073.6787,255.155
1073.8787,260.931
1074.0787,266.151
1074.2787,270.514
1074.4788,273.718
1074.6787,275.469
1074.8787,275.707
1075.0787,274.689
1075.2787,272.692
1075.4788,269.992
1075.6787,266.866
1075.8787,263.591
1076.0787,260.443
1076.2787,257.698
1076.4788,255.634
1076.6787,254.416
1076.8787,254.007
1077.0787,254.342
1077.2787,255.359
1077.4788,256.995
1077.6787,259.187
1077.8787,261.872
1078.0787,264.987
1078.2787,268.469
1078.4788,272.25
1078.6787,276.245
1078.8787,280.365
1079.0787,284.523
1079.2787,288.632
1079.4788,292.604
1079.6787,296.35
1079.8787,299.784
1080.0787,302.817
1080.2787,305.387
1080.4788,307.539
1080.6787,309.346
1080.8787,310.883
1081.0787,312.224
1081.2787,313.441
1081.4788,314.61
1081.6787,315.803
1081.8787,317.095
1082.0787,318.556
1082.2787,320.24
1082.4788,322.194
1082.6787,324.464
1082.8787,327.097
1083.0787,330.138
1083.2787,333.636
1083.4788,337.636
1083.6787,342.184
1083.8787,347.314
1084.0787,352.92
1084.2787,358.818
1084.4788,364.822
1084.6787,370.748
1084.8787,376.41
1085.0787,381.624
1085.2787,386.204
1085.4788,389.966
1085.6787,392.738
1085.8787,394.564
1086.0787,395.665
1086.2787,396.266
1086.4788,396.59
1086.6787,396.863
1086.8787,397.309
1087.0787,398.152
1087.2787,399.618
1087.4788,401.926
1087.6787,405.133
1087.8787,409.118
1088.0787,413.75
1088.2787,418.897
1088.4788,424.428
1088.6787,430.211
1088.8787,436.115
1089.0787,442.009
1089.2787,447.762
1089.4788,453.249
1089.6787,458.36
1089.8787,462.986
1090.0787,467.016
1090.2787,470.341
1090.4788,472.85
1090.6787,474.434
1090.8787,474.983
1091.0787,474.388
1091.2787,472.637
1091.4788,469.93
1091.6787,466.498
1091.8787,462.569
1092.0787,458.371
1092.2787,454.134
1092.4788,450.087
1092.6787,446.458
1092.8787,443.477
1093.0787,441.305
1093.2787,439.899
1093.4788,439.178
1093.6787,439.06
1093.8787,439.461
1094.0787,440.301
1094.2787,441.497
1094.4788,442.967
1094.6787,444.628
1094.8787,446.384
1095.0787,448.07
1095.2787,449.506
1095.4788,450.51
1095.6787,450.899
1095.8787,450.493
1096.0787,449.109
1096.2787,446.567
1096.4788,442.683
1096.6787,437.34
1096.8787,430.797
1097.0787,423.462
1097.2787,415.74
1097.4788,408.038
1097.6787,400.763
1097.8787,394.32
1098.0787,389.118
1098.2787,385.561
1098.4788,384.002
1098.6787,384.299
1098.8787,386.054
1099.0787,388.869
1099.2787,392.343
1099.4788,396.077
1099.6787,399.671
1099.8787,402.724
1100.0787,404.838
1100.2787,405.639
1100.4788,405.09
1100.6787,403.393
1100.8787,400.756
1101.0787,397.383
1101.2787,393.482
1101.4788,389.259
1101.6787,384.92
1101.8787,380.671
1102.0787,376.714
1102.2787,373.145
1102.4788,369.959
1102.6787,367.151
1102.8787,364.714
1103.0787,362.64
1103.2787,360.923
1103.4788,359.556
1103.6787,358.532
1103.8787,357.845
1104.0787,357.458
1104.2787,357.305
1104.4788,357.314
1104.6787,357.418
1104.8787,357.544
1105.0787,357.624
1105.2787,357.587
1105.4788,357.364
1105.6787,356.884
1105.8787,356.117
1106.0787,355.088
1106.2787,353.829
1106.4788,352.373
1106.6787,350.751
1106.8787,348.996
1107.0787,347.14
1107.2787,345.214
1107.4788,343.251
1107.6787,341.287
1107.8787,339.369
1108.0787,337.543
1108.2787,335.857
1108.4788,334.358
1108.6787,333.094
1108.8787,332.111
1109.0787,331.457
1109.2787,331.18
1109.4788,331.281
1109.6787,331.641
1109.8787,332.119
1110.0787,332.573
1110.2787,332.862
1110.4788,332.845
1110.6787,332.38
1110.8787,331.325
1111.0787,329.54
1111.2787,326.943
1111.4788,323.673
1111.6787,319.917
1111.8787,315.867
1112.0787,311.711
1112.2787,307.638
1112.4788,303.838
1112.6787,300.499
1112.8787,297.812
1113.0787,295.917
1113.2787,294.726
1113.4788,294.076
1113.6787,293.807
1113.8787,293.759
1114.0787,293.771
1114.2787,293.681
1114.4788,293.33
1114.6787,292.557
1114.8787,291.231
1115.0787,289.42
1115.2787,287.27
1115.4788,284.929
1115.6787,282.541
1115.8787,280.253
1116.0787,278.211
1116.2787,276.563
1116.4788,275.453
1116.6787,275.006
1116.8787,275.162
1117.0787,275.764
1117.2787,276.655
1117.4788,277.68
1117.6787,278.683
1117.8787,279.505
1118.0787,279.992
1118.2787,279.987
1118.4788,279.347
1118.6787,278.074
1118.8787,276.267
1119.0787,274.026
1119.2787,271.449
1119.4788,268.636
1119.6787,265.686
1119.8787,262.699
1120.0787,259.775
1120.2787,257.008
1120.4788,254.449
1120.6787,252.106
1120.8787,249.99
1121.0787,248.109
1121.2787,246.473
1121.4788,245.092
1121.6787,243.973
1121.8787,243.127
1122.0787,242.562
1122.2787,242.246
1122.4788,242.114
1122.6787,242.098
1122.8787,242.13
1123.0787,242.14
1123.2787,242.062
1123.4788,241.827
1123.6787,241.367
1123.8787,240.616
1124.0787,239.584
1124.2787,238.369
1124.4788,237.078
1124.6787,235.814
1124.8787,234.684
1125.0787,233.791
1125.2787,233.242
1125.4788,233.141
1125.6787,233.59
1125.8787,234.572
1126.0787,235.889
1126.2787,237.33
1126.4788,238.682
1126.6787,239.736
1126.8787,240.279
1127.0787,240.101
1127.2787,238.988
1127.4788,236.733
1127.6787,233.308
1127.8787,229.008
1128.0787,224.166
1128.2787,219.113
1128.4788,214.18
1128.6787,209.698
1128.8787,205.998
1129.0787,203.412
1129.2787,202.269
1129.4788,202.696
1129.6787,204.377
1129.8787,206.934
1130.0787,209.994
1130.2787,213.181
1130.4788,216.118
1130.6787,218.431
1130.8787,219.743
1131.0787,219.68
1131.2787,218.043
1131.4788,215.102
1131.6787,211.204
1131.8787,206.696
1132.0787,201.923
1132.2787,197.233
1132.4788,192.972
1132.6787,189.487
1132.8787,187.125
1133.0787,186.107
1133.2787,186.255
1133.4788,187.313
1133.6787,189.022
1133.8787,191.124
1134.0787,193.363
1134.2787,195.479
1134.4788,197.216
1134.6787,198.316
1134.8787,198.576
1135.0787,198.011
1135.2787,196.686
1135.4788,194.668
1135.6787,192.021
1135.8787,188.813
1136.0787,185.109
1136.2787,180.975
1136.4788,176.478
1136.6787,171.691
1136.8787,166.726
1137.0787,161.707
1137.2787,156.756
1137.4788,151.998
1137.6787,147.555
1137.8787,143.551
1138.0787,140.108
1138.2787,137.351
1138.4788,135.367
1138.6787,134.052
1138.8787,133.236
1139.0787,132.748
1139.2787,132.416
1139.4788,132.069
1139.6787,131.537
1139.8787,130.649
1140.0787,129.234
1140.2787,127.151
1140.4788,124.47
1140.6787,121.343
1140.8787,117.925
1141.0787,114.368
1141.2787,110.827
1141.4788,107.454
1141.6787,104.404
1141.8787,101.83
1142.0787,99.8602
1142.2787,98.4289
1142.4788,97.3773
1142.6787,96.5461
1142.8787,95.7761
1143.0787,94.9079
1143.2787,93.7824
1143.4788,92.2402
1143.6787,90.1221
1143.8787,87.2909
1144.0787,83.8176
1144.2787,79.8864
1144.4788,75.6827
1144.6787,71.3922
1144.8787,67.2003
1145.0787,63.2925
1145.2787,59.8543
1145.4788,57.0713
1145.6787,55.1113
1145.8787,53.9482
1146.0787,53.4342
1146.2787,53.4198
1146.4788,53.7554
1146.6787,54.2913
1146.8787,54.878
1147.0787,55.366
1147.2787,55.6056
1147.4788,55.4555
1147.6787,54.8829
1147.8787,53.9319
1148.0787,52.6482
1148.2787,51.0776
1148.4788,49.2658
1148.6787,47.2585
1148.8787,45.1013
1149.0787,42.8401
1149.2787,40.5215
1149.4788,38.2076
1149.6787,35.973
1149.8787,33.8924
1150.0787,32.0407
1150.2787,30.4926
1150.4788,29.323
1150.6787,28.6066
1150.8787,28.4183
1151.0787,28.8279
1151.2787,29.8113
1151.4788,31.2616
1151.6787,33.069
1151.8787,35.1233
1152.0787,37.3149
1152.2787,39.5337
1152.4788,41.6698
1152.6787,43.6134
1152.8787,45.257
1153.0787,46.5504
1153.2787,47.4992
1153.4788,48.1116
1153.6787,48.3955
1153.8787,48.3591
1154.0787,48.0104
1154.2787,47.3574
1154.4788,46.4083
1154.6787,45.1725
1154.8787,43.6958
1155.0787,42.0635
1155.2787,40.3631
1155.4788,38.6818
1155.6787,37.1069
1155.8787,35.7258
1156.0787,34.6258
1156.2787,33.8942
1156.4788,33.6157
1156.6787,33.7891
1156.8787,34.3119
1157.0787,35.0754
1157.2787,35.9711
1157.4788,36.8905
1157.6787,37.7249
1157.8787,38.3658
1158.0787,38.7047
1158.2787,38.6346
1158.4788,38.1129
1158.6787,37.1794
1158.8787,35.8796
1159.0787,34.2588
1159.2787,32.3625
1159.4788,30.2361
1159.6787,27.925
1159.8787,25.4746
1160.0787,22.9307
1160.2787,20.36
1160.4788,17.8576
1160.6787,15.5213
1160.8787,13.4484
1161.0787,11.7365
1161.2787,10.4832
1161.4788,9.78597
1161.6787,9.74229
1161.8787,10.4478
1162.0787,11.8924
1162.2787,13.9076
1162.4788,16.3117
1162.6787,18.9232
1162.8787,21.5605
1163.0787,24.0419
1163.2787,26.1859
1163.4788,27.8108
1163.6787,28.7369
1163.8787,28.9091
1164.0787,28.4716
1164.2787,27.5871
1164.4788,26.4179
1164.6787,25.1265
1164.8787,23.8753
1165.0787,22.8268
1165.2787,22.1435
1165.4788,21.9866
1165.6787,22.4179
1165.8787,23.3303
1166.0787,24.5999
1166.2787,26.1031
1166.4788,27.7161
1166.6787,29.3151
1166.8787,30.7765
1167.0787,31.9765
1167.2787,32.792
1167.4788,33.1587
1167.6787,33.1186
1167.8787,32.7243
1168.0787,32.029
1168.2787,31.0854
1168.4788,29.9464
1168.6787,28.6649
1168.8787,27.2938
1169.0787,25.8861
1169.2787,24.4922
1169.4788,23.1588
1169.6787,21.9318
1169.8787,20.8573
1170.0787,19.9811
1170.2787,19.3495
1170.4788,19.0083
1170.6787,19.0035
1170.8787,19.381
1171.0787,20.1548
1171.2787,21.2767
1171.4788,22.6909
1171.6787,24.3418
1171.8787,26.1739
1172.0787,28.1313
1172.2787,30.1587
1172.4788,32.2002
1172.6787,34.2001
1172.8787,36.0959
1173.0787,37.8105
1173.2787,39.2651
1173.4788,40.3811
1173.6787,41.0797
1173.8787,41.2822
1174.0787,40.9098
1174.2787,39.8838
1174.4788,38.126
1174.6787,35.6601
1174.8787,32.7233
1175.0787,29.58
1175.2787,26.4944
1175.4788,23.7309
1175.6787,21.5538
1175.8787,20.2274
1176.0787,20.016
1176.2787,21.183
1176.4788,23.8053
1176.6787,27.5598
1176.8787,32.0713
1177.0787,36.9643
1177.2787,41.8638
1177.4788,46.3944
1177.6787,50.181
1177.8787,52.8482
1178.0787,54.0218
1178.2787,53.5343
1178.4788,51.6692
1178.6787,48.7699
1178.8787,45.1798
1179.0787,41.2422
1179.2787,37.3005
1179.4788,33.698
1179.6787,30.778
1179.8787,28.8832
1180.0787,28.1994
1180.2787,28.5672
1180.4788,29.7808
1180.6787,31.6344
1180.8787,33.9224
1181.0787,36.4389
1181.2787,38.9784
1181.4788,41.335
1181.6787,43.3034
1181.8787,44.7485
1182.0787,45.6914
1182.2787,46.1739
1182.4788,46.2379
1182.6787,45.9253
1182.8787,45.2779
1183.0787,44.3377
1183.2787,43.1466
1183.4788,41.7464
1183.6787,40.1908
1183.8787,38.5594
1184.0787,36.9351
1184.2787,35.4009
1184.4788,34.0397
1184.6787,32.9345
1184.8787,32.1683
1185.0787,31.824
1185.2787,31.9843
1185.4788,32.667
1185.6787,33.7488
1185.8787,35.0879
1186.0787,36.5423
1186.2787,37.97
1186.4788,39.2293
1186.6787,40.1781
1186.8787,40.6746
1187.0787,40.5772
1187.2787,39.8223
1187.4788,38.5123
1187.6787,36.7714
1187.8787,34.7238
1188.0787,32.4933
1188.2787,30.2043
1188.4788,27.9807
1188.6787,25.9466
1188.8787,24.2259
1189.0787,22.9024
1189.2787,21.9763
1189.4788,21.4372
1189.6787,21.2748
1189.8787,21.4787
1190.0787,22.0386
1190.2787,22.9441
1190.4788,24.1847
1190.6787,25.7501
1190.8787,27.5942
1191.0787,29.6
1191.2787,31.6417
1191.4788,33.5935
1191.6787,35.3296
1191.8787,36.7241
1192.0787,37.6514
1192.2787,37.9855
1192.4788,37.6016
1192.6787,36.4815
1192.8787,34.8161
1193.0787,32.8202
1193.2787,30.709
1193.4788,28.6974
1193.6787,27.0005
1193.8787,25.8331
1194.0787,25.4104
1194.2787,25.946
1194.4788,27.5235
1194.6787,29.9822
1194.8787,33.1348
1195.0787,36.7936
1195.2787,40.7713
1195.4788,44.8803
1195.6787,48.9333
1195.8787,52.7427
1196.0787,56.1218
1196.2787,58.9589
1196.4788,61.2755
1196.6787,63.1067
1196.8787,64.4878
1197.0787,65.4538
1197.2787,66.0402
1197.4788,66.282
1197.6787,66.2145
1197.8787,65.8733
1198.0787,65.3335
1198.2787,64.736
1198.4788,64.2282
1198.6787,63.9575
1198.8787,64.0712
1199.0787,64.7168
1199.2787,66.0414
1199.4788,68.1926
1199.6787,71.3154
1199.8787,75.406
1200.0787,80.2251
1200.2787,85.5126
1200.4788,91.0084
1200.6787,96.4521
1200.8787,101.584
1201.0787,106.143
1201.2787,109.87
1201.4788,112.507
1201.6787,113.961
1201.8787,114.38
1202.0787,113.931
1202.2787,112.783
1202.4788,111.103
1202.6787,109.058
1202.8787,106.817
1203.0787,104.547
1203.2787,102.414
1203.4788,100.489
1203.6787,98.7135
1203.8787,97.0203
1204.0787,95.3416
1204.2787,93.6099
1204.4788,91.7575
1204.6787,89.7167
1204.8787,87.42
1205.0787,84.801
1205.2787,81.845
1205.4788,78.6026
1205.6787,75.1285
1205.8787,71.4776
1206.0787,67.7045
1206.2787,63.864
1206.4788,60.011
1206.6787,56.2002
1206.8787,52.4859
1207.0787,48.9073
1207.2787,45.486
1207.4788,42.2428
1207.6787,39.1983
1207.8787,36.3731
1208.0787,33.7881
1208.2787,31.4637
1208.4788,29.4207
1208.6787,27.6795
1208.8787,26.2545
1209.0787,25.1536
1209.2787,24.3841
1209.4788,23.9538
1209.6787,23.8701
1209.8787,24.1405
1210.0787,24.7727
1210.2787,25.7741
1210.4788,27.1491
1210.6787,28.8355
1210.8787,30.7061
1211.0787,32.6314
1211.2787,34.4817
1211.4788,36.1276
1211.6787,37.4393
1211.8787,38.2872
1212.0787,38.5419
1212.2787,38.082
1212.4788,36.9387
1212.6787,35.2758
1212.8787,33.2615
1213.0787,31.064
1213.2787,28.8516
1213.4788,26.7924
1213.6787,25.0548
1213.8787,23.8068
1214.0787,23.2059
1214.2787,23.2415
1214.4788,23.7729
1214.6787,24.6559
1214.8787,25.7461
1215.0787,26.8992
1215.2787,27.971
1215.4788,28.8172
1215.6787,29.2935
1215.8787,29.2671
1216.0787,28.7532
1216.2787,27.8693
1216.4788,26.735
1216.6787,25.47
1216.8787,24.1939
1217.0787,23.0262
1217.2787,22.0867
1217.4788,21.495
1217.6787,21.3618
1217.8787,21.7021
1218.0787,22.4721
1218.2787,23.6274
1218.4788,25.1234
1218.6787,26.9155
1218.8787,28.9594
1219.0787,31.2103
1219.2787,33.6238
1219.4788,36.1513
1219.6787,38.7073
1219.8787,41.1864
1220.0787,43.483
1220.2787,45.4917
1220.4788,47.1068
1220.6787,48.2229
1220.8787,48.7345
1221.0787,48.5359
1221.2787,47.5463
1221.4788,45.8753
1221.6787,43.7206
1221.8787,41.2807
1222.0787,38.7537
1222.2787,36.338
1222.4788,34.2319
1222.6787,32.6338
1222.8787,31.7419
1223.0787,31.7165
1223.2787,32.4712
1223.4788,33.8215
1223.6787,35.5825
1223.8787,37.5692
1224.0787,39.5968
1224.2787,41.4804
1224.4788,43.035
1224.6787,44.0759
1224.8787,44.4515
1225.0787,44.1915
1225.2787,43.3873
1225.4788,42.13
1225.6787,40.5111
1225.8787,38.6218
1226.0787,36.5533
1226.2787,34.3971
1226.4788,32.2443
1226.6787,30.1836
1226.8787,28.2915
1227.0787,26.6413
1227.2787,25.3061
1227.4788,24.359
1227.6787,23.8732
1227.8787,23.9219
1228.0787,24.5781
1228.2787,25.915
1228.4788,27.9539
1228.6787,30.519
1228.8787,33.3879
1229.0787,36.3383
1229.2787,39.1476
1229.4788,41.5935
1229.6787,43.4536
1229.8787,44.5054
1230.0787,44.5266
1230.2787,43.4048
1230.4788,41.3724
1230.6787,38.7292
1230.8787,35.7752
1231.0787,32.8101
1231.2787,30.1338
1231.4788,28.0462
1231.6787,26.8472
1231.8787,26.8363
1232.0787,28.1719
1232.2787,30.6471
1232.4788,33.9964
1232.6787,37.9542
1232.8787,42.2551
1233.0787,46.6335
1233.2787,50.8241
1233.4788,54.5612
1233.6787,57.5801
1233.8787,59.7227
1234.0787,61.0588
1234.2787,61.6876
1234.4788,61.7081
1234.6787,61.2197
1234.8787,60.3213
1235.0787,59.1122
1235.2787,57.6914
1235.4788,56.1581
1235.6787,54.6032
1235.8787,53.1036
1236.0787,51.7346
1236.2787,50.5717
1236.4788,49.6901
1236.6787,49.1653
1236.8787,49.0728
1237.0787,49.4878
1237.2787,50.484
1237.4788,52.0469
1237.6787,54.0344
1237.8787,56.2946
1238.0787,58.6755
1238.2787,61.0251
1238.4788,63.1915
1238.6787,65.0227
1238.8787,66.3667
1239.0787,67.0755
1239.2787,67.1291
1239.4788,66.6586
1239.6787,65.8041
1239.8787,64.7056
1240.0787,63.5033
1240.2787,62.3371
1240.4788,61.3471
1240.6787,60.6735
1240.8787,60.4509
1241.0787,60.7003
1241.2787,61.3329
1241.4788,62.2551
1241.6787,63.3733
1241.8787,64.5941
1242.0787,65.824
1242.2787,66.9694
1242.4788,67.9369
1242.6787,68.6368
1242.8787,69.0406
1243.0787,69.1675
1243.2787,69.038
1243.4788,68.6725
1243.6787,68.0916
1243.8787,67.3158
1244.0787,66.3655
1244.2787,65.2612
1244.4788,64.0268
1244.6787,62.7238
1244.8787,61.4373
1245.0787,60.253
1245.2787,59.2563
1245.4788,58.533
1245.6787,58.1685
1245.8787,58.2484
1246.0787,58.8584
1246.2787,60.063
1246.4788,61.7513
1246.6787,63.724
1246.8787,65.7813
1247.0787,67.7233
1247.2787,69.3501
1247.4788,70.462
1247.6787,70.8591
1247.8787,70.3415
1248.0787,68.7554
1248.2787,66.2399
1248.4788,63.0488
1248.6787,59.436
1248.8787,55.6556
1249.0787,51.9617
1249.2787,48.6082
1249.4788,45.8491
1249.6787,43.9385
1249.8787,43.0704
1250.0787,43.1479
1250.2787,43.9868
1250.4788,45.4025
1250.6787,47.2108
1250.8787,49.2272
1251.0787,51.2673
1251.2787,53.1466
1251.4788,54.6809
1251.6787,55.7283
1251.8787,56.3038
1252.0787,56.4579
1252.2787,56.2415
1252.4788,55.7053
1252.6787,54.8999
1252.8787,53.8761
1253.0787,52.6845
1253.2787,51.376
1253.4788,49.9908
1253.6787,48.541
1253.8787,47.0337
1254.0787,45.4758
1254.2787,43.8744
1254.4788,42.2366
1254.6787,40.5694
1254.8787,38.8799
1255.0787,37.1752
1255.2787,35.4919
1255.4788,33.9281
1255.6787,32.5901
1255.8787,31.5836
1256.0787,31.0149
1256.2787,30.99
1256.4788,31.6148
1256.6787,32.9955
1256.8787,35.2362
1257.0787,38.309
1257.2787,41.9744
1257.4788,45.9734
1257.6787,50.0472
1257.8787,53.9369
1258.0787,57.3837
1258.2787,60.1286
1258.4788,61.9128
1258.6787,62.4838
1258.8787,61.8079
1259.0787,60.1212
1259.2787,57.6762
1259.4788,54.7255
1259.6787,51.5217
1259.8787,48.3173
1260.0787,45.3649
1260.2787,42.9171
1260.4788,41.2169
1260.6787,40.3124
1260.8787,40.0685
1261.0787,40.3433
1261.2787,40.9945
1261.4788,41.8801
1261.6787,42.8582
1261.8787,43.7866
1262.0787,44.5232
1262.2787,44.9359
1262.4788,45.025
1262.6787,44.8845
1262.8787,44.6105
1263.0787,44.2992
1263.2787,44.0466
1263.4788,43.949
1263.6787,44.1024
1263.8787,44.6029
1264.0787,45.5372
1264.2787,46.9054
1264.4788,48.662
1264.6787,50.761
1264.8787,53.1565
1265.0787,55.8024
1265.2787,58.6528
1265.4788,61.6617
1265.6787,64.7831
1265.8787,67.969
1266.0787,71.1586
1266.2787,74.2858
1266.4788,77.2847
1266.6787,80.0896
1266.8787,82.6343
1267.0787,84.853
1267.2787,86.6799
1267.4788,88.0488
1267.6787,88.9248
1267.8787,89.4103
1268.0787,89.6461
1268.2787,89.7731
1268.4788,89.9322
1268.6787,90.2642
1268.8787,90.9101
1269.0787,92.0106
1269.2787,93.7067
1269.4788,96.0689
1269.6787,98.9449
1269.8787,102.139
1270.0787,105.455
1270.2787,108.697
1270.4788,111.669
1270.6787,114.175
1270.8787,116.019
1271.0787,117.005
1271.2787,117.065
1271.4788,116.41
1271.6787,115.291
1271.8787,113.961
1272.0787,112.671
1272.2787,111.671
1272.4788,111.213
1272.6787,111.548
1272.8787,112.926
1273.0787,115.43
1273.2787,118.874
1273.4788,123.049
1273.6787,127.746
1273.8787,132.756
1274.0787,137.869
1274.2787,142.875
1274.4788,147.566
1274.6787,151.736
1274.8787,155.303
1275.0787,158.33
1275.2787,160.891
1275.4788,163.055
1275.6787,164.895
1275.8787,166.483
1276.0787,167.889
1276.2787,169.186
1276.4788,170.445
1276.6787,171.708
1276.8787,172.999
1277.0787,174.338
1277.2787,175.748
1277.4788,177.249
1277.6787,178.864
1277.8787,180.614
1278.0787,182.521
1278.2787,184.603
1278.4788,186.854
1278.6787,189.252
1278.8787,191.773
1279.0787,194.397
1279.2787,197.099
1279.4788,199.858
1279.6787,202.651
1279.8787,205.456
1280.0787,208.25
1280.2787,211.011
1280.4788,213.717
1280.6787,216.345
1280.8787,218.873
1281.0787,221.279
1281.2787,223.541
1281.4788,225.636
1281.6787,227.542
1281.8787,229.237
1282.0787,230.693
1282.2787,231.882
1282.4788,232.775
1282.6787,233.346
1282.8787,233.565
1283.0787,233.404
1283.2787,232.835
1283.4788,231.831
1283.6787,230.4
1283.8787,228.671
1284.0787,226.795
1284.2787,224.919
1284.4788,223.196
1284.6787,221.776
1284.8787,220.807
1285.0787,220.441
1285.2787,220.826
1285.4788,222.024
1285.6787,223.909
1285.8787,226.333
1286.0787,229.147
1286.2787,232.204
1286.4788,235.354
1286.6787,238.451
1286.8787,241.344
1287.0787,243.888
1287.2787,245.996
1287.4788,247.667
1287.6787,248.905
1287.8787,249.718
1288.0787,250.11
1288.2787,250.088
1288.4788,249.656
1288.6787,248.821
1288.8787,247.592
1289.0787,246.037
1289.2787,244.29
1289.4788,242.484
1289.6787,240.753
1289.8787,239.232
1290.0787,238.055
1290.2787,237.356
1290.4788,237.268
1290.6787,237.916
1290.8787,239.284
1291.0787,241.264
1291.2787,243.747
1291.4788,246.622
1291.6787,249.779
1291.8787,253.11
1292.0787,256.504
1292.2787,259.851
1292.4788,263.05
1292.6787,266.06
1292.8787,268.87
1293.0787,271.467
1293.2787,273.839
1293.4788,275.975
1293.6787,277.861
1293.8787,279.487
1294.0787,280.839
1294.2787,281.911
1294.4788,282.717
1294.6787,283.28
1294.8787,283.619
1295.0787,283.758
1295.2787,283.718
1295.4788,283.519
1295.6787,283.184
1295.8787,282.735
1296.0787,282.177
1296.2787,281.474
1296.4788,280.579
1296.6787,279.447
1296.8787,278.031
1297.0787,276.287
1297.2787,274.168
1297.4788,271.629
1297.6787,268.623
1297.8787,265.145
1298.0787,261.265
1298.2787,257.063
1298.4788,252.619
1298.6787,248.012
1298.8787,243.323
1299.0787,238.629
1299.2787,234.012
1299.4788,229.55
1299.6787,225.291
1299.8787,221.246
1300.0787,217.421
1300.2787,213.824
1300.4788,210.462
1300.6787,207.342
1300.8787,204.472
1301.0787,201.859
1301.2787,199.507
1301.4788,197.362
1301.6787,195.327
1301.8787,193.297
1302.0787,191.173
1302.2787,188.851
1302.4788,186.23
1302.6787,183.209
1302.8787,179.685
1303.0787,175.573
1303.2787,170.943
1303.4788,165.951
1303.6787,160.753
1303.8787,155.508
1304.0787,150.371
1304.2787,145.501
1304.4788,141.053
1304.6787,137.185
1304.8787,134.023
1305.0787,131.52
1305.2787,129.568
1305.4788,128.058
1305.6787,126.88
1305.8787,125.928
1306.0787,125.091
1306.2787,124.262
1306.4788,123.332
1306.6787,122.205
1306.8787,120.829
1307.0787,119.163
1307.2787,117.163
1307.4788,114.789
1307.6787,111.997
1307.8787,108.745
1308.0787,104.992
1308.2787,100.695
1308.4788,95.886
1308.6787,90.7498
1308.8787,85.4922
1309.0787,80.3186
1309.2787,75.4346
1309.4788,71.0455
1309.6787,67.357
1309.8787,64.5744
1310.0787,62.8991
1310.2787,62.3536
1310.4788,62.7197
1310.6787,63.7625
1310.8787,65.2467
1311.0787,66.9373
1311.2787,68.5991
1311.4788,69.997
1311.6787,70.8959
1311.8787,71.072
1312.0787,70.5028
1312.2787,69.3385
1312.4788,67.7352
1312.6787,65.8487
1312.8787,63.8351
1313.0787,61.8503
1313.2787,60.0503
1313.4788,58.5911
1313.6787,57.6115
1313.8787,57.0939
1314.0787,56.9355
1314.2787,57.0329
1314.4788,57.2826
1314.6787,57.5812
1314.8787,57.8253
1315.0787,57.9114
1315.2787,57.736
1315.4788,57.2125
1315.6787,56.3415
1315.8787,55.1528
1316.0787,53.676
1316.2787,51.9407
1316.4788,49.9766
1316.6787,47.8132
1316.8787,45.4803
1317.0787,43.0073
1317.2787,40.4359
1317.4788,37.8442
1317.6787,35.3174
1317.8787,32.9406
1318.0787,30.799
1318.2787,28.9778
1318.4788,27.5621
1318.6787,26.6372
1318.8787,26.2874
1319.0787,26.5252
1319.2787,27.2301
1319.4788,28.2672
1319.6787,29.5017
1319.8787,30.7986
1320.0787,32.0231
1320.2787,33.0403
1320.4788,33.7154
1320.6787,33.9173
1320.8787,33.6249
1321.0787,32.9414
1321.2787,31.9768
1321.4788,30.8411
1321.6787,29.6441
1321.8787,28.4959
1322.0787,27.5064
1322.2787,26.7856
1322.4788,26.4349
1322.6787,26.4463
1322.8787,26.7358
1323.0787,27.2177
1323.2787,27.8064
1323.4788,28.4164
1323.6787,28.962
1323.8787,29.3576
1324.0787,29.5176
1324.2787,29.3702
1324.4788,28.9374
1324.6787,28.28
1324.8787,27.4592
1325.0787,26.5361
1325.2787,25.5718
1325.4788,24.6273
1325.6787,23.7636
1325.8787,23.042
1326.0787,22.5134
1326.2787,22.1902
1326.4788,22.076
1326.6787,22.174
1326.8787,22.4878
1327.0787,23.0206
1327.2787,23.776
1327.4788,24.7572
1327.6787,25.9676
1327.8787,27.384
1328.0787,28.9254
1328.2787,30.5037
1328.4788,32.0306
1328.6787,33.4176
1328.8787,34.5764
1329.0787,35.4188
1329.2787,35.8565
1329.4788,35.8031
1329.6787,35.2513
1329.8787,34.2944
1330.0787,33.0323
1330.2787,31.5649
1330.4788,29.9923
1330.6787,28.4143
1330.8787,26.9309
1331.0787,25.642
1331.2787,24.6429
1331.4788,23.9587
1331.6787,23.5609
1331.8787,23.4201
1332.0787,23.5063
1332.2787,23.79
1332.4788,24.2414
1332.6787,24.8308
1332.8787,25.5286
1333.0787,26.3041
1333.2787,27.1214
1333.4788,27.9414
1333.6787,28.7256
1333.8787,29.4351
1334.0787,30.0311
1334.2787,30.4749
1334.4788,30.7277
1334.6787,30.7507
1334.8787,30.5252
1335.0787,30.1115
1335.2787,29.5894
1335.4788,29.0387
1335.6787,28.5392
1335.8787,28.1707
1336.0787,28.013
1336.2787,28.1459
1336.4788,28.6488
1336.6787,29.549
1336.8787,30.7599
1337.0787,32.1799
1337.2787,33.7074
1337.4788,35.2411
1337.6787,36.6793
1337.8787,37.9205
1338.0787,38.8632
1338.2787,39.4084
1338.4788,39.548
1338.6787,39.3864
1338.8787,39.0355
1339.0787,38.6069
1339.2787,38.2123
1339.4788,37.9635
1339.6787,37.9722
1339.8787,38.35
1340.0787,39.1994
1340.2787,40.4971
1340.4788,42.1293
1340.6787,43.9802
1340.8787,45.9341
1341.0787,47.8752
1341.2787,49.6877
1341.4788,51.2558
1341.6787,52.4637
1341.8787,53.209
1342.0787,53.4771
1342.2787,53.2885
1342.4788,52.6642
1342.6787,51.625
1342.8787,50.1917
1343.0787,48.3852
1343.2787,46.2262
1343.4788,43.7355
1343.6787,40.953
1343.8787,37.9826
1344.0787,34.9426
1344.2787,31.951
1344.4788,29.1258
1344.6787,26.5853
1344.8787,24.4473
1345.0787,22.83
1345.2787,21.8509
1345.4788,21.5642
1345.6787,21.9069
1345.8787,22.8031
1346.0787,24.1772
1346.2787,25.9532
1346.4788,28.0554
1346.6787,30.4081
1346.8787,32.9353
1347.0787,35.561
1347.2787,38.1973
1347.4788,40.7444
1347.6787,43.1021
1347.8787,45.17
1348.0787,46.8478
1348.2787,48.0352
1348.4788,48.6318
1348.6787,48.5375
1348.8787,47.669
1349.0787,46.1184
1349.2787,44.079
1349.4788,41.7458
1349.6787,39.3133
1349.8787,36.9763
1350.0787,34.9297
1350.2787,33.3681
1350.4788,32.4863
1350.6787,32.4271
1350.8787,33.0766
1351.0787,34.2412
1351.2787,35.7276
1351.4788,37.3421
1351.6787,38.8913
1351.8787,40.1817
1352.0787,41.0198
1352.2787,41.2124
1352.4788,40.6714
1352.6787,39.5761
1352.8787,38.1474
1353.0787,36.6061
1353.2787,35.1731
1353.4788,34.0695
1353.6787,33.516
1353.8787,33.7337
1354.0787,34.9385
1354.2787,37.1363
1354.4788,40.0465
1354.6787,43.3677
1354.8787,46.7988
1355.0787,50.0385
1355.2787,52.7856
1355.4788,54.7389
1355.6787,55.5971
1355.8787,55.0826
1356.0787,53.2551
1356.2787,50.4251
1356.4788,46.9097
1356.6787,43.0254
1356.8787,39.0892
1357.0787,35.4178
1357.2787,32.3279
1357.4788,30.1364
1357.6787,29.1038
1357.8787,29.1303
1358.0787,29.9737
1358.2787,31.3913
1358.4788,33.1405
1358.6787,34.9789
1358.8787,36.6637
1359.0787,37.9524
1359.2787,38.6024
1359.4788,38.4604
1359.6787,37.6545
1359.8787,36.3684
1360.0787,34.7856
1360.2787,33.09
1360.4788,31.4649
1360.6787,30.0942
1360.8787,29.1613
1361.0787,28.8482
1361.2787,29.2117
1361.4788,30.1063
1361.6787,31.3677
1361.8787,32.8315
1362.0787,34.3337
1362.2787,35.7099
1362.4788,36.7958
1362.6787,37.4274
1362.8787,37.4494
1363.0787,36.8714
1363.2787,35.8452
1363.4788,34.5273
1363.6787,33.0742
1363.8787,31.6426
1364.0787,30.3889
1364.2787,29.4696
1364.4788,29.0412
1364.6787,29.2342
1364.8787,29.9835
1365.0787,31.1357
1365.2787,32.5371
1365.4788,34.034
1365.6787,35.4726
1365.8787,36.699
1366.0787,37.5596
1366.2787,37.9007
1366.4788,37.6292
1366.6787,36.868
1366.8787,35.7873
1367.0787,34.5574
1367.2787,33.3486
1367.4788,32.3311
1367.6787,31.6754
1367.8787,31.5517
1368.0787,32.1289
1368.2787,33.4535
1368.4788,35.3576
1368.6787,37.6514
1368.8787,40.1452
1369.0787,42.6491
1369.2787,44.9736
1369.4788,46.9288
1369.6787,48.325
1369.8787,48.981
1370.0787,48.8824
1370.2787,48.167
1370.4788,46.9783
1370.6787,45.4595
1370.8787,43.754
1371.0787,42.0052
1371.2787,40.3564
1371.4788,38.9511
1371.6787,37.9158
1371.8787,37.2477
1372.0787,36.8838
1372.2787,36.7605
1372.4788,36.8144
1372.6787,36.982
1372.8787,37.2
1373.0787,37.4048
1373.2787,37.533
1373.4788,37.5352
1373.6787,37.4121
1373.8787,37.1756
1374.0787,36.8374
1374.2787,36.4093
1374.4788,35.9033
1374.6787,35.3311
1374.8787,34.7045
1375.0787,34.0358
1375.2787,33.363
1375.4788,32.7693
1375.6787,32.3419
1375.8787,32.1684
1376.0787,32.3362
1376.2787,32.9326
1376.4788,34.0451
1376.6787,35.7611
1376.8787,38.1583
1377.0787,41.1372
1377.2787,44.4439
1377.4788,47.8193
1377.6787,51.0044
1377.8787,53.7401
1378.0787,55.7672
1378.2787,56.8266
1378.4788,56.6594
1378.6787,55.0586
1378.8787,52.1883
1379.0787,48.3735
1379.2787,43.9396
1379.4788,39.212
1379.6787,34.5163
1379.8787,30.178
1380.0787,26.5224
1380.2787,23.8751
1380.4788,22.4551
1380.6787,22.1412
1380.8787,22.7445
1381.0787,24.0759
1381.2787,25.9465
1381.4788,28.1672
1381.6787,30.5492
1381.8787,32.9033
1382.0787,35.042
1382.2787,36.8532
1382.4788,38.3407
1382.6787,39.5175
1382.8787,40.397
1383.0787,40.9925
1383.2787,41.317
1383.4788,41.384
1383.6787,41.2067
1383.8787,40.7989
1384.0787,40.1832
1384.2787,39.389
1384.4788,38.4458
1384.6787,37.383
1384.8787,36.2302
1385.0787,35.0169
1385.2787,33.7725
1385.4788,32.5265
1385.6787,31.3081
1385.8787,30.1452
1386.0787,29.0652
1386.2787,28.0952
1386.4788,27.2626
1386.6787,26.5948
1386.8787,26.119
1387.0787,25.8625
1387.2787,25.8526
1387.4788,26.0955
1387.6787,26.5423
1387.8787,27.1357
1388.0787,27.818
1388.2787,28.532
1388.4788,29.22
1388.6787,29.8245
1388.8787,30.2882
1389.0787,30.5549
1389.2787,30.6178
1389.4788,30.5304
1389.6787,30.3501
1389.8787,30.1342
1390.0787,29.94
1390.2787,29.8248
1390.4788,29.8459
1390.6787,30.0607
1390.8787,30.5207
1391.0787,31.2196
1391.2787,32.116
1391.4788,33.1682
1391.6787,34.3346
1391.8787,35.5734
1392.0787,36.843
1392.2787,38.1016
1392.4788,39.3075
1392.6787,40.4288
1392.8787,41.4752
1393.0787,42.4675
1393.2787,43.4267
1393.4788,44.3738
1393.6787,45.3297
1393.8787,46.3153
1394.0787,47.3516
1394.2787,48.4593
1394.4788,49.6422
1394.6787,50.8714
1394.8787,52.1144
1395.0787,53.3385
1395.2787,54.5113
1395.4788,55.6002
1395.6787,56.5727
1395.8787,57.3962
1396.0787,58.0393
1396.2787,58.4921
1396.4788,58.7641
1396.6787,58.8654
1396.8787,58.8062
1397.0787,58.5968
1397.2787,58.2473
1397.4788,57.7679
1397.6787,57.1688
1397.8787,56.4597
1398.0787,55.6476
1398.2787,54.7383
1398.4788,53.7374
1398.6787,52.6508
1398.8787,51.484
1399.0787,50.243
1399.2787,48.9334
1399.4788,47.5609
1399.6787,46.1364
1399.8787,44.6857
1400.0787,43.2369
1400.2787,41.8184
1400.4788,40.4583
1400.6787,39.1851
1400.8787,38.027
1401.0787,37.0122
1401.2787,36.1691
1401.4788,35.5282
1401.6787,35.1226
1401.8787,34.9858
1402.0787,35.1511
1402.2787,35.6519
1402.4788,36.5216
1402.6787,37.7936
1402.8787,39.5012
1403.0787,41.6698
1403.2787,44.2394
1403.4788,47.0988
1403.6787,50.1363
1403.8787,53.24
1404.0787,56.2983
1404.2787,59.1994
1404.4788,61.8314
1404.6787,64.0825
1404.8787,65.8638
1405.0787,67.1804
1405.2787,68.0618
1405.4788,68.5376
1405.6787,68.6372
1405.8787,68.3904
1406.0787,67.8265
1406.2787,66.9752
1406.4788,65.8663
1406.6787,64.5615
1406.8787,63.1783
1407.0787,61.8401
1407.2787,60.67
1407.4788,59.7914
1407.6787,59.3275
1407.8787,59.4016
1408.0787,60.137
1408.2787,61.6434
1408.4788,63.8165
1408.6787,66.3796
1408.8787,69.0515
1409.0787,71.5508
1409.2787,73.5961
1409.4788,74.906
1409.6787,75.1993
1409.8787,74.1946
1410.0787,71.6845
1410.2787,67.8813
1410.4788,63.1442
1410.6787,57.8326
1410.8787,52.3061
1411.0787,46.9242
1411.2787,42.0462
1411.4788,38.0317
1411.6787,35.2394
1411.8787,33.8536
1412.0787,33.6564
1412.2787,34.3741
1412.4788,35.7328
1412.6787,37.4586
1412.8787,39.2775
1413.0787,40.9157
1413.2787,42.0993
1413.4788,42.5634
1413.6787,42.2557
1413.8787,41.3388
1414.0787,39.9852
1414.2787,38.367
1414.4788,36.6567
1414.6787,35.0264
1414.8787,33.6485
1415.0787,32.6954
1415.2787,32.313
1415.4788,32.455
1415.6787,32.9899
1415.8787,33.7856
1416.0787,34.7101
1416.2787,35.6314
1416.4788,36.4174
1416.6787,36.9362
1416.8787,37.0557
1417.0787,36.7029
1417.2787,35.9729
1417.4788,34.9905
1417.6787,33.8806
1417.8787,32.7682
1418.0787,31.778
1418.2787,31.035
1418.4788,30.664
1418.6787,30.7875
1418.8787,31.4478
1419.0787,32.5897
1419.2787,34.1525
1419.4788,36.0751
1419.6787,38.2968
1419.8787,40.7566
1420.0787,43.3936
1420.2787,46.1471
1420.4788,48.9584
1420.6787,51.7906
1420.8787,54.6179
1421.0787,57.4148
1421.2787,60.1556
1421.4788,62.8147
1421.6787,65.3666
1421.8787,67.7855
1422.0787,70.0459
1422.2787,72.1378
1422.4788,74.1037
1422.6787,75.997
1422.8787,77.8712
1423.0787,79.7797
1423.2787,81.776
1423.4788,83.9134
1423.6787,86.2455
1423.8787,88.8245
1424.0787,91.65
1424.2787,94.6492
1424.4788,97.7441
1424.6787,100.857
1424.8787,103.909
1425.0787,106.822
1425.2787,109.52
1425.4788,111.922
1425.6787,113.96
1425.8787,115.644
1426.0787,117.032
1426.2787,118.184
1426.4788,119.158
1426.6787,120.014
1426.8787,120.81
1427.0787,121.605
1427.2787,122.459
1427.4788,123.432
1427.6787,124.587
1427.8787,125.989
1428.0787,127.703
1428.2787,129.794
1428.4788,132.327
1428.6787,135.366
1428.8787,138.977
1429.0787,143.222
1429.2787,148.082
1429.4788,153.414
1429.6787,159.065
1429.8787,164.883
1430.0787,170.714
1430.2787,176.407
1430.4788,181.807
1430.6787,186.764
1430.8787,191.138
1431.0787,194.949
1431.2787,198.317
1431.4788,201.361
1431.6787,204.203
1431.8787,206.963
1432.0787,209.761
1432.2787,212.717
1432.4788,215.953
1432.6787,219.551
1432.8787,223.447
1433.0787,227.543
1433.2787,231.738
1433.4788,235.936
1433.6787,240.036
1433.8787,243.939
1434.0787,247.547
1434.2787,250.762
1434.4788,253.551
1434.6787,255.982
1434.8787,258.128
1435.0787,260.066
1435.2787,261.871
1435.4788,263.616
1435.6787,265.378
1435.8787,267.231
1436.0787,269.246
1436.2787,271.444
1436.4788,273.816
1436.6787,276.353
1436.8787,279.044
1437.0787,281.882
1437.2787,284.855
1437.4788,287.954
1437.6787,291.171
1437.8787,294.483
1438.0787,297.828
1438.2787,301.132
1438.4788,304.321
1438.6787,307.321
1438.8787,310.06
1439.0787,312.462
1439.2787,314.455
1439.4788,315.967
1439.6787,317.004
1439.8787,317.688
1440.0787,318.15
1440.2787,318.521
1440.4788,318.933
1440.6787,319.516
1440.8787,320.401
1441.0787,321.719
1441.2787,323.587
1441.4788,325.975
1441.6787,328.767
1441.8787,331.845
1442.0787,335.093
1442.2787,338.393
1442.4788,341.628
1442.6787,344.679
1442.8787,347.431
1443.0787,349.792
1443.2787,351.768
1443.4788,353.384
1443.6787,354.667
1443.8787,355.642
1444.0787,356.335
1444.2787,356.773
1444.4788,356.98
1444.6787,356.983
1444.8787,356.824
1445.0787,356.57
1445.2787,356.284
1445.4788,356.035
1445.6787,355.887
1445.8787,355.906
1446.0787,356.16
1446.2787,356.714
1446.4788,357.624
1446.6787,358.85
1446.8787,360.302
1447.0787,361.892
1447.2787,363.529
1447.4788,365.123
1447.6787,366.584
1447.8787,367.822
1448.0787,368.748
1448.2787,369.306
1448.4788,369.543
1448.6787,369.526
1448.8787,369.322
1449.0787,369
1449.2787,368.625
1449.4788,368.265
1449.6787,367.987
1449.8787,367.856
1450.0787,367.845
1450.2787,367.823
1450.4788,367.652
1450.6787,367.197
1450.8787,366.32
1451.0787,364.884
1451.2787,362.752
1451.4788,359.788
1451.6787,355.892
1451.8787,351.23
1452.0787,346.092
1452.2787,340.766
1452.4788,335.541
1452.6787,330.706
1452.8787,326.549
1453.0787,323.36
1453.2787,321.426
1453.4788,320.891
1453.6787,321.538
1453.8787,323.095
1454.0787,325.288
1454.2787,327.846
1454.4788,330.495
1454.6787,332.963
1454.8787,334.977
1455.0787,336.273
1455.2787,336.773
1455.4788,336.572
1455.6787,335.775
1455.8787,334.483
1456.0787,332.8
1456.2787,330.829
1456.4788,328.674
1456.6787,326.438
1456.8787,324.215
1457.0787,322.046
1457.2787,319.953
1457.4788,317.959
1457.6787,316.088
1457.8787,314.361
1458.0787,312.801
1458.2787,311.432
1458.4788,310.275
1458.6787,309.332
1458.8787,308.567
1459.0787,307.935
1459.2787,307.396
1459.4788,306.906
1459.6787,306.423
1459.8787,305.904
1460.0787,305.308
1460.2787,304.595
1460.4788,303.759
1460.6787,302.826
1460.8787,301.817
1461.0787,300.757
1461.2787,299.668
1461.4788,298.576
1461.6787,297.503
1461.8787,296.472
1462.0787,295.514
1462.2787,294.687
1462.4788,294.055
1462.6787,293.685
1462.8787,293.64
1463.0787,293.986
1463.2787,294.789
1463.4788,296.113
1463.6787,298.021
1463.8787,300.517
1464.0787,303.509
1464.2787,306.9
1464.4788,310.595
1464.6787,314.495
1464.8787,318.504
1465.0787,322.525
1465.2787,326.461
1465.4788,330.222
1465.6787,333.773
1465.8787,337.113
1466.0787,340.239
1466.2787,343.15
1466.4788,345.843
1466.6787,348.316
1466.8787,350.567
1467.0787,352.594
1467.2787,354.4
1467.4788,356.004
1467.6787,357.427
1467.8787,358.689
1468.0787,359.811
1468.2787,360.816
1468.4788,361.723
1468.6787,362.554
1468.8787,363.329
1469.0787,364.062
1469.2787,364.756
1469.4788,365.416
1469.6787,366.044
1469.8787,366.646
1470.0787,367.225
1470.2787,367.785
1470.4788,368.329
1470.6787,368.855
1470.8787,369.314
1471.0787,369.641
1471.2787,369.772
1471.4788,369.641
1471.6787,369.184
1471.8787,368.336
1472.0787,367.032
1472.2787,365.208
1472.4788,362.848
1472.6787,360.033
1472.8787,356.853
1473.0787,353.4
1473.2787,349.765
1473.4788,346.037
1473.6787,342.31
1473.8787,338.673
1474.0787,335.212
1474.2787,331.943
1474.4788,328.832
1474.6787,325.846
1474.8787,322.951
1475.0787,320.111
1475.2787,317.293
1475.4788,314.462
1475.6787,311.584
1475.8787,308.641
1476.0787,305.673
1476.2787,302.735
1476.4788,299.881
1476.6787,297.165
1476.8787,294.641
1477.0787,292.365
1477.2787,290.391
1477.4788,288.771
1477.6787,287.49
1477.8787,286.452
1478.0787,285.554
1478.2787,284.692
1478.4788,283.764
1478.6787,282.666
1478.8787,281.296
1479.0787,279.551
1479.2787,277.341
1479.4788,274.677
1479.6787,271.613
1479.8787,268.203
1480.0787,264.501
1480.2787,260.562
1480.4788,256.44
1480.6787,252.189
1480.8787,247.865
1481.0787,243.531
1481.2787,239.275
1481.4788,235.187
1481.6787,231.36
1481.8787,227.882
1482.0787,224.845
1482.2787,222.34
1482.4788,220.456
1482.6787,219.275
1482.8787,218.709
1483.0787,218.542
1483.2787,218.555
1483.4788,218.528
1483.6787,218.241
1483.8787,217.475
1484.0787,216.01
1484.2787,213.626
1484.4788,210.175
1484.6787,205.791
1484.8787,200.683
1485.0787,195.058
1485.2787,189.125
1485.4788,183.092
1485.6787,177.166
1485.8787,171.556
1486.0787,166.466
1486.2787,161.969
1486.4788,157.964
1486.6787,154.339
1486.8787,150.983
1487.0787,147.781
1487.2787,144.623
1487.4788,141.395
1487.6787,137.986
1487.8787,134.299
1488.0787,130.356
1488.2787,126.232
1488.4788,122.003
1488.6787,117.743
1488.8787,113.529
1489.0787,109.436
1489.2787,105.538
1489.4788,101.912
1489.6787,98.5895
1489.8787,95.506
1490.0787,92.5856
1490.2787,89.7518
1490.4788,86.9283
1490.6787,84.0386
1490.8787,81.0064
1491.0787,77.7553
1491.2787,74.2151
1491.4788,70.406
1491.6787,66.4151
1491.8787,62.331
1492.0787,58.2425
1492.2787,54.2384
1492.4788,50.4072
1492.6787,46.8378
1492.8787,43.6188
1493.0787,40.8235
1493.2787,38.4672
1493.4788,36.5517
1493.6787,35.0787
1493.8787,34.0502
1494.0787,33.4679
1494.2787,33.3336
1494.4788,33.6491
1494.6787,34.4143
1494.8787,35.5698
1495.0787,36.9857
1495.2787,38.5278
1495.4788,40.0623
1495.6787,41.4552
1495.8787,42.5723
1496.0787,43.2798
1496.2787,43.4437
1496.4788,42.9602
1496.6787,41.9172
1496.8787,40.4771
1497.0787,38.8024
1497.2787,37.0557
1497.4788,35.3995
1497.6787,33.9963
1497.8787,33.0086
1498.0787,32.598
1498.2787,32.8169
1498.4788,33.5156
1498.6787,34.5222
1498.8787,35.6649
1499.0787,36.7719
1499.2787,37.6714
1499.4788,38.1916
1499.6787,38.1607
1499.8787,37.4266
1500.0787,36.0517
1500.2787,34.2295
1500.4788,32.1558
1500.6787,30.0263
1500.8787,28.0365
1501.0787,26.382
1501.2787,25.2586
1501.4788,24.8618
1501.6787,25.2991
1501.8787,26.4221
1502.0787,28.036
1502.2787,29.9459
1502.4788,31.957
1502.6787,33.8745
1502.8787,35.5036
1503.0787,36.6494
1503.2787,37.125
1503.4788,36.9023
1503.6787,36.0989
1503.8787,34.8382
1504.0787,33.2436
1504.2787,31.4383
1504.4788,29.5458
1504.6787,27.6894
1504.8787,25.9923
1505.0787,24.5589
1505.2787,23.4064
1505.4788,22.5273
1505.6787,21.9141
1505.8787,21.5594
1506.0787,21.4557
1506.2787,21.5955
1506.4788,21.9714
1506.6787,22.5751
1506.8787,23.3694
1507.0787,24.2776
1507.2787,25.2202
1507.4788,26.1177
1507.6787,26.8906
1507.8787,27.4595
1508.0787,27.7447
1508.2787,27.6669
1508.4788,27.1687
1508.6787,26.349
1508.8787,25.3736
1509.0787,24.4089
1509.2787,23.621
1509.4788,23.1762
1509.6787,23.2406
1509.8787,23.9804
1510.0787,25.5609
1510.2787,28.0161
1510.4788,31.1243
1510.6787,34.6339
1510.8787,38.2933
1511.0787,41.8511
1511.2787,45.0557
1511.4788,47.6557
1511.6787,49.3994
1511.8787,50.0606
1512.0787,49.6888
1512.2787,48.5045
1512.4788,46.7305
1512.6787,44.5898
1512.8787,42.3051
1513.0787,40.0995
1513.2787,38.1958
1513.4788,36.8168
1513.6787,36.0977
1513.8787,35.9278
1514.0787,36.1534
1514.2787,36.6209
1514.4788,37.1768
1514.6787,37.6673
1514.8787,37.9389
1515.0787,37.8379
1515.2787,37.2195
1515.4788,36.0937
1515.6787,34.6036
1515.8787,32.8965
1516.0787,31.12
1516.2787,29.4213
1516.4788,27.9478
1516.6787,26.8469
1516.8787,26.266
1517.0787,26.3046
1517.2787,26.87
1517.4788,27.8221
1517.6787,29.0203
1517.8787,30.3243
1518.0787,31.5937
1518.2787,32.6882
1518.4788,33.4672
1518.6787,33.7942
1518.8787,33.6444
1519.0787,33.1228
1519.2787,32.3417
1519.4788,31.4131
1519.6787,30.4492
1519.8787,29.5623
1520.0787,28.8644
1520.2787,28.4678
1520.4788,28.4588
1520.6787,28.7787
1520.8787,29.319
1521.0787,29.9712
1521.2787,30.6264
1521.4788,31.1762
1521.6787,31.5119
1521.8787,31.5248
1522.0787,31.1079
1522.2787,30.2478
1522.4788,29.0748
1522.6787,27.7308
1522.8787,26.3583
1523.0787,25.0994
1523.2787,24.0964
1523.4788,23.4914
1523.6787,23.4267
1523.8787,24.019
1524.0787,25.19
1524.2787,26.7709
1524.4788,28.5925
1524.6787,30.4856
1524.8787,32.281
1525.0787,33.8095
1525.2787,34.9019
1525.4788,35.3897
1525.6787,35.199
1525.8787,34.4443
1526.0787,33.2622
1526.2787,31.7892
1526.4788,30.1621
1526.6787,28.5174
1526.8787,26.9918
1527.0787,25.7218
1527.2787,24.8329
1527.4788,24.3327
1527.6787,24.1584
1527.8787,24.2466
1528.0787,24.5337
1528.2787,24.9562
1528.4788,25.4505
1528.6787,25.953
1528.8787,26.4004
1529.0787,26.7502
1529.2787,27.0142
1529.4788,27.2126
1529.6787,27.3654
1529.8787,27.493
1530.0787,27.6153
1530.2787,27.7527
1530.4788,27.9252
1530.6787,28.1515
1530.8787,28.4276
1531.0787,28.733
1531.2787,29.0466
1531.4788,29.3474
1531.6787,29.6145
1531.8787,29.8268
1532.0787,29.9633
1532.2787,30.003
1532.4788,29.9369
1532.6787,29.7944
1532.8787,29.6124
1533.0787,29.4281
1533.2787,29.2784
1533.4788,29.2004
1533.6787,29.2311
1533.8787,29.4076
1534.0787,29.7641
1534.2787,30.2825
1534.4788,30.8972
1534.6787,31.5406
1534.8787,32.1454
1535.0787,32.6442
1535.2787,32.9696
1535.4788,33.0541
1535.6787,32.8303
1535.8787,32.2582
1536.0787,31.4052
1536.2787,30.3655
1536.4788,29.2334
1536.6787,28.103
1536.8787,27.0684
1537.0787,26.2238
1537.2787,25.6634
1537.4788,25.4785
1537.6787,25.6867
1537.8787,26.226
1538.0787,27.0305
1538.2787,28.0345
1538.4788,29.172
1538.6787,30.3771
1538.8787,31.5842
1539.0787,32.7272
1539.2787,33.7543
1539.4788,34.6806
1539.6787,35.5407
1539.8787,36.3694
1540.0787,37.2014
1540.2787,38.0713
1540.4788,39.014
1540.6787,40.0641
1540.8787,41.255
1541.0787,42.5718
1541.2787,43.939
1541.4788,45.2778
1541.6787,46.509
1541.8787,47.5536
1542.0787,48.3326
1542.2787,48.7669
1542.4788,48.7775
1542.6787,48.3109
1542.8787,47.4565
1543.0787,46.3531
1543.2787,45.1395
1543.4788,43.9546
1543.6787,42.9372
1543.8787,42.226
1544.0787,41.96
1544.2787,42.2756
1544.4788,43.1997
1544.6787,44.604
1544.8787,46.3483
1545.0787,48.2926
1545.2787,50.2967
1545.4788,52.2206
1545.6787,53.924
1545.8787,55.267
1546.0787,56.1295
1546.2787,56.5207
1546.4788,56.5
1546.6787,56.1272
1546.8787,55.4618
1547.0787,54.5635
1547.2787,53.4921
1547.4788,52.3071
1547.6787,51.068
1547.8787,49.8141
1548.0787,48.5539
1548.2787,47.2928
1548.4788,46.0365
1548.6787,44.7906
1548.8787,43.5606
1549.0787,42.3521
1549.2787,41.1707
1549.4788,40.0223
1549.6787,38.9146
1549.8787,37.8563
1550.0787,36.8559
1550.2787,35.9221
1550.4788,35.0635
1550.6787,34.2886
1550.8787,33.6062
1551.0787,33.0248
1551.2787,32.5564
1551.4788,32.2182
1551.6787,32.0282
1551.8787,32.0043
1552.0787,32.1642
1552.2787,32.526
1552.4788,33.1075
1552.6787,33.9265
1552.8787,34.9928
1553.0787,36.2525
1553.2787,37.6224
1553.4788,39.0189
1553.6787,40.3588
1553.8787,41.5584
1554.0787,42.5345
1554.2787,43.2035
1554.4788,43.4825
1554.6787,43.3345
1554.8787,42.8055
1555.0787,41.9502
1555.2787,40.8231
1555.4788,39.479
1555.6787,37.9724
1555.8787,36.358
1556.0787,34.6904
1556.2787,33.0241
1556.4788,31.4104
1556.6787,29.8997
1556.8787,28.5423
1557.0787,27.3882
1557.2787,26.4879
1557.4788,25.8915
1557.6787,25.6493
1557.8787,25.8111
1558.0787,26.3914
1558.2787,27.3381
1558.4788,28.5921
1558.6787,30.0943
1558.8787,31.7854
1559.0787,33.6063
1559.2787,35.4978
1559.4788,37.4007
1559.6787,39.2535
1559.8787,40.9752
1560.0787,42.4749
1560.2787,43.6616
1560.4788,44.4445
1560.6787,44.7325
1560.8787,44.4349
1561.0787,43.4607
1561.2787,41.7201
1561.4788,39.2493
1561.6787,36.3215
1561.8787,33.2364
1562.0787,30.2933
1562.2787,27.7919
1562.4788,26.0316
1562.6787,25.312
1562.8787,25.9325
1563.0787,28.1379
1563.2787,31.715
1563.4788,36.2233
1563.6787,41.2204
1563.8787,46.2641
1564.0787,50.9121
1564.2787,54.7221
1564.4788,57.2518
1564.6787,58.0615
1564.8787,56.9811
1565.0787,54.3407
1565.2787,50.5247
1565.4788,45.9176
1565.6787,40.9038
1565.8787,35.8677
1566.0787,31.1938
1566.2787,27.2664
1566.4788,24.4264
1566.6787,22.6631
1566.8787,21.7956
1567.0787,21.6421
1567.2787,22.0207
1567.4788,22.7496
1567.6787,23.6469
1567.8787,24.5307
1568.0787,25.22
1568.2787,25.6147
1568.4788,25.7583
1568.6787,25.7093
1568.8787,25.5264
1569.0787,25.2681
1569.2787,24.9929
1569.4788,24.7594
1569.6787,24.6262
1569.8787,24.6475
1570.0787,24.8459
1570.2787,25.2294
1570.4788,25.806
1570.6787,26.5833
1570.8787,27.5694
1571.0787,28.7721
1571.2787,30.1992
1571.4788,31.8581
1571.6787,33.7164
1571.8787,35.6748
1572.0787,37.6276
1572.2787,39.4692
1572.4788,41.094
1572.6787,42.3963
1572.8787,43.2705
1573.0787,43.6108
1573.2787,43.3333
1573.4788,42.5035
1573.6787,41.2512
1573.8787,39.7061
1574.0787,37.9978
1574.2787,36.2564
1574.4788,34.6114
1574.6787,33.1927
1574.8787,32.1287
1575.0787,31.469
1575.2787,31.1417
1575.4788,31.0647
1575.6787,31.1557
1575.8787,31.3326
1576.0787,31.5131
1576.2787,31.6149
1576.4788,31.556
1576.6787,31.268
1576.8787,30.769
1577.0787,30.1103
1577.2787,29.343
1577.4788,28.5186
1577.6787,27.6882
1577.8787,26.9032
1578.0787,26.2149
1578.2787,25.6741
1578.4788,25.3152
1578.6787,25.1495
1578.8787,25.1866
1579.0787,25.4361
1579.2787,25.9077
1579.4788,26.6109
1579.6787,27.5554
1579.8787,28.7508
1580.0787,30.196
1580.2787,31.8309
1580.4788,33.5762
1580.6787,35.3521
1580.8787,37.0791
1581.0787,38.6775
1581.2787,40.0678
1581.4788,41.1704
1581.6787,41.9081
1581.8787,42.2832
1582.0787,42.3948
1582.2787,42.3478
1582.4788,42.2471
1582.6787,42.1975
1582.8787,42.304
1583.0787,42.6713
1583.2787,43.4044
1583.4788,44.5792
1583.6787,46.1386
1583.8787,47.9873
1584.0787,50.0301
1584.2787,52.1719
1584.4788,54.3174
1584.6787,56.3713
1584.8787,58.2385
1585.0787,59.8268
1585.2787,61.1186
1585.4788,62.1742
1585.6787,63.0573
1585.8787,63.8319
1586.0787,64.5618
1586.2787,65.3109
1586.4788,66.143
1586.6787,67.1219
1586.8787,68.2984
1587.0787,69.6723
1587.2787,71.2318
1587.4788,72.9649
1587.6787,74.8598
1587.8787,76.9044
1588.0787,79.0868
1588.2787,81.395
1588.4788,83.8188
1588.6787,86.3758
1588.8787,89.1086
1589.0787,92.0605
1589.2787,95.2748
1589.4788,98.7947
1589.6787,102.664
1589.8787,106.925
1590.0787,111.622
1590.2787,116.792
1590.4788,122.456
1590.6787,128.63
1590.8787,135.333
1591.0787,142.58
1591.2787,150.389
1591.4788,158.778
1591.6787,167.763
1591.8787,177.354
1592.0787,187.458
1592.2787,197.912
1592.4788,208.549
1592.6787,219.204
1592.8787,229.71
1593.0787,239.901
1593.2787,249.611
1593.4788,258.675
1593.6787,267.005
1593.8787,274.706
1594.0787,281.914
1594.2787,288.762
1594.4788,295.385
1594.6787,301.917
1594.8787,308.492
1595.0787,315.244
1595.2787,322.282
1595.4788,329.462
1595.6787,336.497
1595.8787,343.097
1596.0787,348.973
1596.2787,353.835
1596.4788,357.394
1596.6787,359.36
1596.8787,359.445
1597.0787,357.524
1597.2787,353.776
1597.4788,348.419
1597.6787,341.668
1597.8787,333.737
1598.0787,324.844
1598.2787,315.203
1598.4788,305.031
1598.6787,294.529
1598.8787,283.802
1599.0787,272.913
1599.2787,261.921
1599.4788,250.89
1599.6787,239.879
1599.8787,228.952
1600.0787,218.169
1600.2787,207.592
1600.4788,197.283
1600.6787,187.306
1600.8787,177.724
1601.0787,168.6
1601.2787,159.999
1601.4788,151.983
1601.6787,144.616
1601.8787,137.962
1602.0787,132.067
1602.2787,126.888
1602.4788,122.354
1602.6787,118.391
1602.8787,114.928
1603.0787,111.893
1603.2787,109.213
1603.4788,106.817
1603.6787,104.632
1603.8787,102.606
1604.0787,100.709
1604.2787,98.9097
1604.4788,97.1784
1604.6787,95.485
1604.8787,93.7995
1605.0787,92.0917
1605.2787,90.3317
1605.4788,88.4936
1605.6787,86.5688
1605.8787,84.5524
1606.0787,82.4394
1606.2787,80.2251
1606.4788,77.9045
1606.6787,75.4728
1606.8787,72.9251
1607.0787,70.2587
1607.2787,67.5041
1607.4788,64.7196
1607.6787,61.964
1607.8787,59.2962
1608.0787,56.775
1608.2787,54.4593
1608.4788,52.4081
1608.6787,50.6801
1608.8787,49.3153
1609.0787,48.3033
1609.2787,47.6255
1609.4788,47.2633
1609.6787,47.198
1609.8787,47.4111
1610.0787,47.8838
1610.2787,48.5975
1610.4788,49.531
1610.6787,50.6342
1610.8787,51.8408
1611.0787,53.0841
1611.2787,54.2973
1611.4788,55.4138
1611.6787,56.3668
1611.8787,57.0897
1612.0787,57.5161
1612.2787,57.6197
1612.4788,57.4479
1612.6787,57.0562
1612.8787,56.5001
1613.0787,55.8352
1613.2787,55.1169
1613.4788,54.4009
1613.6787,53.7424
1613.8787,53.1913
1614.0787,52.7582
1614.2787,52.4378
1614.4788,52.225
1614.6787,52.1146
1614.8787,52.1013
1615.0787,52.1801
1615.2787,52.3456
1615.4788,52.593
1615.6787,52.9324
1615.8787,53.3924
1616.0787,54.0032
1616.2787,54.7948
1616.4788,55.7972
1616.6787,57.0405
1616.8787,58.5548
1617.0787,60.3701
1617.2787,62.5026
1617.4788,64.9094
1617.6787,67.5313
1617.8787,70.3096
1618.0787,73.1852
1618.2787,76.0992
1618.4788,78.9926
1618.6787,81.8065
1618.8787,84.4841
1619.0787,87.0096
1619.2787,89.4027
1619.4788,91.6844
1619.6787,93.8759
1619.8787,95.998
1620.0787,98.0718
1620.2787,100.118
1620.4788,102.159
1620.6787,104.232
1620.8787,106.426
1621.0787,108.839
1621.2787,111.566
1621.4788,114.706
1621.6787,118.355
1621.8787,122.609
1622.0787,127.566
1622.2787,133.312
1622.4788,139.839
1622.6787,147.078
1622.8787,154.961
1623.0787,163.421
1623.2787,172.391
1623.4788,181.802
1623.6787,191.586
1623.8787,201.677
1624.0787,212.047
1624.2787,222.739
1624.4788,233.804
1624.6787,245.293
1624.8787,257.257
1625.0787,269.745
1625.2787,282.808
1625.4788,296.498
1625.6787,310.841
1625.8787,325.735
1626.0787,341.025
1626.2787,356.559
1626.4788,372.182
1626.6787,387.743
1626.8787,403.087
1627.0787,418.062
1627.2787,432.514
1627.4788,446.307
1627.6787,459.325
1627.8787,471.451
1628.0787,482.569
1628.2787,492.563
1628.4788,501.315
1628.6787,508.711
1628.8787,514.634
1629.0787,518.984
1629.2787,521.721
1629.4788,522.817
1629.6787,522.245
1629.8787,519.976
1630.0787,515.984
1630.2787,510.241
1630.4788,502.719
1630.6787,493.407
1630.8787,482.493
1631.0787,470.313
1631.2787,457.202
1631.4788,443.499
1631.6787,429.54
1631.8787,415.663
1632.0787,402.203
1632.2787,389.498
1632.4788,377.77
1632.6787,367.007
1632.8787,357.162
1633.0787,348.194
1633.2787,340.059
1633.4788,332.712
1633.6787,326.109
1633.8787,320.208
1634.0787,314.954
1634.2787,310.224
1634.4788,305.867
1634.6787,301.73
1634.8787,297.659
1635.0787,293.503
1635.2787,289.109
1635.4788,284.324
1635.6787,279
1635.8787,273.098
1636.0787,266.723
1636.2787,259.987
1636.4788,253.005
1636.6787,245.888
1636.8787,238.749
1637.0787,231.701
1637.2787,224.858
1637.4788,218.296
1637.6787,211.951
1637.8787,205.727
1638.0787,199.525
1638.2787,193.249
1638.4788,186.801
1638.6787,180.083
1638.8787,172.999
1639.0787,165.462
1639.2787,157.546
1639.4788,149.442
1639.6787,141.346
1639.8787,133.455
1640.0787,125.962
1640.2787,119.065
1640.4788,112.957
1640.6787,107.834
1640.8787,103.765
1641.0787,100.549
1641.2787,97.9474
1641.4788,95.7251
1641.6787,93.645
1641.8787,91.4706
1642.0787,88.9652
1642.2787,85.8922
1642.4788,82.0587
1642.6787,77.5768
1642.8787,72.6885
1643.0787,67.6363
1643.2787,62.6627
1643.4788,58.0101
1643.6787,53.9212
1643.8787,50.6382
1644.0787,48.3974
1644.2787,47.2198
1644.4788,46.8651
1644.6787,47.0772
1644.8787,47.5999
1645.0787,48.1771
1645.2787,48.5528
1645.4788,48.4706
1645.6787,47.6746
1645.8787,45.9973
1646.0787,43.5915
1646.2787,40.6824
1646.4788,37.4949
1646.6787,34.2543
1646.8787,31.1856
1647.0787,28.514
1647.2787,26.4645
1647.4788,25.2463
1647.6787,24.867
1647.8787,25.1968
1648.0787,26.1033
1648.2787,27.4541
1648.4788,29.1167
1648.6787,30.9586
1648.8787,32.8474
1649.0787,34.6509
1649.2787,36.273
1649.4788,37.6854
1649.6787,38.8676
1649.8787,39.7991
1650.0787,40.4592
1650.2787,40.8275
1650.4788,40.8834
1650.6787,40.6063
1650.8787,39.9863
1651.0787,39.0756
1651.2787,37.9489
1651.4788,36.6811
1651.6787,35.3469
1651.8787,34.0212
1652.0787,32.7787
1652.2787,31.6942
1652.4788,30.8399
1652.6787,30.2224
1652.8787,29.7818
1653.0787,29.455
1653.2787,29.179
1653.4788,28.8908
1653.6787,28.5274
1653.8787,28.0257
1654.0787,27.3228
1654.2787,26.3981
1654.4788,25.3533
1654.6787,24.3119
1654.8787,23.3971
1655.0787,22.7325
1655.2787,22.4414
1655.4788,22.6472
1655.6787,23.4735
1655.8787,25.0213
1656.0787,27.1879
1656.2787,29.7608
1656.4788,32.5265
1656.6787,35.2713
1656.8787,37.7816
1657.0787,39.8438
1657.2787,41.2444
1657.4788,41.7729
1657.6787,41.3766
1657.8787,40.2319
1658.0787,38.5334
1658.2787,36.4753
1658.4788,34.2523
1658.6787,32.0588
1658.8787,30.0891
1659.0787,28.5377
1659.2787,27.5566
1659.4788,27.119
1659.6787,27.1517
1659.8787,27.5814
1660.0787,28.3347
1660.2787,29.3383
1660.4788,30.5188
1660.6787,31.803
1660.8787,33.1186
1661.0787,34.4084
1661.2787,35.6268
1661.4788,36.7283
1661.6787,37.6672
1661.8787,38.3982
1662.0787,38.8757
1662.2787,39.0542
1662.4788,38.8884
1662.6787,38.3661
1662.8787,37.5403
1663.0787,36.4714
1663.2787,35.22
1663.4788,33.8468
1663.6787,32.4122
1663.8787,30.9768
1664.0787,29.6012
1664.2787,28.3406
1664.4788,27.2187
1664.6787,26.2479
1664.8787,25.4408
1665.0787,24.8098
1665.2787,24.3672
1665.4788,24.1255
1665.6787,24.0973
1665.8787,24.2937
1666.0787,24.7037
1666.2787,25.2939
1666.4788,26.0301
1666.6787,26.8781
1666.8787,27.8037
1667.0787,28.7727
1667.2787,29.751
1667.4788,30.7044
1667.6787,31.5998
1667.8787,32.4079
1668.0787,33.0993
1668.2787,33.6452
1668.4788,34.0163
1668.6787,34.1836
1668.8787,34.1181
1669.0787,33.7906
1669.2787,33.1833
1669.4788,32.3649
1669.6787,31.4441
1669.8787,30.5297
1670.0787,29.7308
1670.2787,29.1563
1670.4788,28.9152
1670.6787,29.1163
1670.8787,29.8647
1671.0787,31.1379
1671.2787,32.7605
1671.4788,34.5478
1671.6787,36.315
1671.8787,37.8777
1672.0787,39.0511
1672.2787,39.6506
1672.4788,39.4916
1672.6787,38.4749
1672.8787,36.7757
1673.0787,34.624
1673.2787,32.25
1673.4788,29.8839
1673.6787,27.7559
1673.8787,26.0959
1674.0787,25.1342
1674.2787,25.0748
1674.4788,25.8681
1674.6787,27.3229
1674.8787,29.2461
1675.0787,31.4449
1675.2787,33.7263
1675.4788,35.8974
1675.6787,37.7652
1675.8787,39.139
1676.0787,39.9267
1676.2787,40.1764
1676.4788,39.9468
1676.6787,39.2966
1676.8787,38.2844
1677.0787,36.9688
1677.2787,35.4087
1677.4788,33.6625
1677.6787,31.8048
1677.8787,29.9703
1678.0787,28.3078
1678.2787,26.9662
1678.4788,26.0944
1678.6787,25.8414
1678.8787,26.356
1679.0787,27.787
1679.2787,30.2598
1679.4788,33.6269
1679.6787,37.5666
1679.8787,41.7541
1680.0787,45.8648
1680.2787,49.5739
1680.4788,52.5569
1680.6787,54.4889
1680.8787,55.0491
1681.0787,54.1474
1681.2787,52.0612
1681.4788,49.1004
1681.6787,45.575
1681.8787,41.7949
1682.0787,38.07
1682.2787,34.7103
1682.4788,32.0257
1682.6787,30.2593
1682.8787,29.3713
1683.0787,29.2467
1683.2787,29.7708
1683.4788,30.8285
1683.6787,32.3051
1683.8787,34.0856
1684.0787,36.0551
1684.2787,38.1011
1684.4788,40.1387
1684.6787,42.1027
1684.8787,43.9283
1685.0787,45.5506
1685.2787,46.9047
1685.4788,47.9257
1685.6787,48.5488
1685.8787,48.7098
1686.0787,48.4011
1686.2787,47.7108
1686.4788,46.7362
1686.6787,45.5743
1686.8787,44.3226
1687.0787,43.0782
1687.2787,41.9383
1687.4788,41.0002
1687.6787,40.333
1687.8787,39.8803
1688.0787,39.5506
1688.2787,39.2525
1688.4788,38.8946
1688.6787,38.3855
1688.8787,37.6337
1689.0787,36.5477
1689.2787,35.0471
1689.4788,33.1962
1689.6787,31.1626
1689.8787,29.1163
1690.0787,27.227
1690.2787,25.6646
1690.4788,24.5991
1690.6787,24.2002
1690.8787,24.6361
1691.0787,25.9373
1691.2787,27.8986
1691.4788,30.2919
1691.6787,32.8892
1691.8787,35.4623
1692.0787,37.7831
1692.2787,39.6235
1692.4788,40.7553
1692.6787,41.0117
1692.8787,40.4974
1693.0787,39.3923
1693.2787,37.8761
1693.4788,36.1288
1693.6787,34.3301
1693.8787,32.6598
1694.0787,31.2978
1694.2787,30.4127
1694.4788,30.0289
1694.6787,30.0701
1694.8787,30.4581
1695.0787,31.1145
1695.2787,31.9612
1695.4788,32.9197
1695.6787,33.9118
1695.8787,34.8599
1696.0787,35.7264
1696.2787,36.5401
1696.4788,37.3357
1696.6787,38.1479
1696.8787,39.0117
1697.0787,39.9616
1697.2787,41.0326
1697.4788,42.2594
1697.6787,43.6614
1697.8787,45.195
1698.0787,46.7997
1698.2787,48.4153
1698.4788,49.9816
1698.6787,51.4383
1698.8787,52.7251
1699.0787,53.7819
1699.2787,54.5533
1699.4788,55.043
1699.6787,55.2928
1699.8787,55.3448
1700.0787,55.2416
1700.2787,55.0254
1700.4788,54.7385
1700.6787,54.4233
1700.8787,54.1218
1701.0787,53.8622
1701.2787,53.6519
1701.4788,53.4963
1701.6787,53.4011
1701.8787,53.3718
1702.0787,53.4141
1702.2787,53.5335
1702.4788,53.7355
1702.6787,54.024
1702.8787,54.3958
1703.0787,54.8462
1703.2787,55.3704
1703.4788,55.9638
1703.6787,56.6217
1703.8787,57.3394
1704.0787,58.1121
1704.2787,58.9333
1704.4788,59.7774
1704.6787,60.6083
1704.8787,61.3895
1705.0787,62.0847
1705.2787,62.6575
1705.4788,63.0717
1705.6787,63.2907
1705.8787,63.2793
1706.0787,63.0382
1706.2787,62.6151
1706.4788,62.0609
1706.6787,61.4267
1706.8787,60.7632
1707.0787,60.1213
1707.2787,59.552
1707.4788,59.1061
1707.6787,58.8129
1707.8787,58.6354
1708.0787,58.5239
1708.2787,58.4287
1708.4788,58.3002
1708.6787,58.0886
1708.8787,57.7443
1709.0787,57.2177
1709.2787,56.4736
1709.4788,55.5918
1709.6787,54.7067
1709.8787,53.9528
1710.0787,53.4647
1710.2787,53.3772
1710.4788,53.8247
1710.6787,54.9419
1710.8787,56.8572
1711.0787,59.5363
1711.2787,62.7705
1711.4788,66.3425
1711.6787,70.0349
1711.8787,73.6306
1712.0787,76.9121
1712.2787,79.6622
1712.4788,81.6639
1712.6787,82.8216
1712.8787,83.3352
1713.0787,83.4487
1713.2787,83.4064
1713.4788,83.4521
1713.6787,83.8301
1713.8787,84.7845
1714.0787,86.5592
1714.2787,89.3404
1714.4788,92.9656
1714.6787,97.1433
1714.8787,101.581
1715.0787,105.988
1715.2787,110.071
1715.4788,113.539
1715.6787,116.099
1715.8787,117.477
1716.0787,117.694
1716.2787,117.019
1716.4788,115.731
1716.6787,114.105
1716.8787,112.421
1717.0787,110.955
1717.2787,109.985
1717.4788,109.788
1717.6787,110.509
1717.8787,112.055
1718.0787,114.31
1718.2787,117.152
1718.4788,120.464
1718.6787,124.126
1718.8787,128.02
1719.0787,132.027
1719.2787,136.029
1719.4788,139.918
1719.6787,143.586
1719.8787,146.925
1720.0787,149.828
1720.2787,152.188
1720.4788,153.896
1720.6787,154.846
1720.8787,154.946
1721.0787,154.274
1721.2787,153.016
1721.4788,151.361
1721.6787,149.496
1721.8787,147.609
1722.0787,145.888
1722.2787,144.521
1722.4788,143.692
1722.6787,143.43
1722.8787,143.556
1723.0787,143.876
1723.2787,144.194
1723.4788,144.318
1723.6787,144.052
1723.8787,143.204
1724.0787,141.577
1724.2787,139.074
1724.4788,135.879
1724.6787,132.231
1724.8787,128.368
1725.0787,124.529
1725.2787,120.953
1725.4788,117.877
1725.6787,115.54
1725.8787,114.141
1726.0787,113.591
1726.2787,113.674
1726.4788,114.175
1726.6787,114.878
1726.8787,115.567
1727.0787,116.027
1727.2787,116.042
1727.4788,115.403
1727.6787,114.064
1727.8787,112.126
1728.0787,109.699
1728.2787,106.891
1728.4788,103.81
1728.6787,100.565
1728.8787,97.2639
1729.0787,94.016
1729.2787,90.8896
1729.4788,87.8747
1729.6787,84.9518
1729.8787,82.1016
1730.0787,79.3045
1730.2787,76.5411
1730.4788,73.792
1730.6787,71.0378
1730.8787,68.2699
1731.0787,65.5288
1731.2787,62.869
1731.4788,60.3451
1731.6787,58.0113
1731.8787,55.9223
1732.0787,54.1324
1732.2787,52.6962
1732.4788,51.6654
1732.6787,51.0607
1732.8787,50.884
1733.0787,51.1367
1733.2787,51.8201
1733.4788,52.9358
1733.6787,54.4852
1733.8787,56.4696
1734.0787,58.8885
1734.2787,61.6646
1734.4788,64.6214
1734.6787,67.5761
1734.8787,70.3457
1735.0787,72.7473
1735.2787,74.598
1735.4788,75.7148
1735.6787,75.9149
1735.8787,75.111
1736.0787,73.4768
1736.2787,71.2304
1736.4788,68.5898
1736.6787,65.7731
1736.8787,62.9984
1737.0787,60.4837
1737.2787,58.4471
1737.4788,57.07
1737.6787,56.3064
1737.8787,56.0233
1738.0787,56.0872
1738.2787,56.3651
1738.4788,56.7235
1738.6787,57.0292
1738.8787,57.1489
1739.0787,56.955
1739.2787,56.4101
1739.4788,55.5487
1739.6787,54.4074
1739.8787,53.023
1740.0787,51.4321
1740.2787,49.6713
1740.4788,47.7773
1740.6787,45.7869
1740.8787,43.7523
1741.0787,41.7502
1741.2787,39.8599
1741.4788,38.1602
1741.6787,36.7305
1741.8787,35.6496
1742.0787,34.9967
1742.2787,34.851
1742.4788,35.2449
1742.6787,36.0514
1742.8787,37.1091
1743.0787,38.2566
1743.2787,39.3326
1743.4788,40.1757
1743.6787,40.6245
1743.8787,40.5176
1744.0787,39.7208
1744.2787,38.3094
1744.4788,36.4563
1744.6787,34.3347
1744.8787,32.1182
1745.0787,29.98
1745.2787,28.0936
1745.4788,26.6322
1745.6787,25.7622
1745.8787,25.5003
1746.0787,25.7237
1746.2787,26.3038
1746.4788,27.1121
1746.6787,28.0202
1746.8787,28.8997
1747.0787,29.622
1747.2787,30.0593
1747.4788,30.1577
1747.6787,30.0006
1747.8787,29.6864
1748.0787,29.3138
1748.2787,28.9813
1748.4788,28.7875
1748.6787,28.8309
1748.8787,29.21
1749.0787,29.9876
1749.2787,31.0865
1749.4788,32.3952
1749.6787,33.8019
1749.8787,35.1952
1750.0787,36.4634
1750.2787,37.495
1750.4788,38.1785
1750.6787,38.4172
1750.8787,38.2442
1751.0787,37.7595
1751.2787,37.0633
1751.4788,36.2559
1751.6787,35.4377
1751.8787,34.7091
1752.0787,34.1702
1752.2787,33.9187
1752.4788,33.9855
1752.6787,34.3345
1752.8787,34.9271
1753.0787,35.7244
1753.2787,36.6876
1753.4788,37.7777
1753.6787,38.9561
1753.8787,40.1836
1754.0787,41.4056
1754.2787,42.5359
1754.4788,43.4852
1754.6787,44.1638
1754.8787,44.4821
1755.0787,44.3507
1755.2787,43.6799
1755.4788,42.3803
1755.6787,40.4128
1755.8787,37.9432
1756.0787,35.1884
1756.2787,32.3657
1756.4788,29.692
1756.6787,27.3844
1756.8787,25.6601
1757.0787,24.7362
1757.2787,24.7986
1757.4788,25.7627
1757.6787,27.4045
1757.8787,29.4991
1758.0787,31.8213
1758.2787,34.146
1758.4788,36.2482
1758.6787,37.9028
1758.8787,38.8921
1759.0787,39.165
1759.2787,38.8349
1759.4788,38.022
1759.6787,36.8466
1759.8787,35.429
1760.0787,33.8895
1760.2787,32.3485
1760.4788,30.9257
1760.6787,29.6983
1760.8787,28.6626
1761.0787,27.8061
1761.2787,27.1165
1761.4788,26.5812
1761.6787,26.1878
1761.8787,25.9238
1762.0787,25.7767
1762.2787,25.7398
1762.4788,25.8276
1762.6787,26.0597
1762.8787,26.4554
1763.0787,27.0344
1763.2787,27.8161
1763.4788,28.8202
1763.6787,30.066
1763.8787,31.5614
1764.0787,33.2225
1764.2787,34.9224
1764.4788,36.5341
1764.6787,37.9303
1764.8787,38.984
1765.0787,39.5681
1765.2787,39.5553
1765.4788,38.8273
1765.6787,37.4274
1765.8787,35.5425
1766.0787,33.3642
1766.2787,31.0843
1766.4788,28.8944
1766.6787,26.9864
1766.8787,25.5519
1767.0787,24.7813
1767.2787,24.7663
1767.4788,25.4373
1767.6787,26.7096
1767.8787,28.4984
1768.0787,30.7191
1768.2787,33.2869
1768.4788,36.1172
1768.6787,39.1253
1768.8787,42.2209
1769.0787,45.2959
1769.2787,48.2391
1769.4788,50.939
1769.6787,53.2841
1769.8787,55.1632
1770.0787,56.4648
1770.2787,57.0774
1770.4788,56.9153
1770.6787,56.0549
1770.8787,54.6353
1771.0787,52.796
1771.2787,50.6764
1771.4788,48.416
1771.6787,46.1541
1771.8787,44.0303
1772.0787,42.1753
1772.2787,40.6008
1772.4788,39.2322
1772.6787,37.9929
1772.8787,36.8061
1773.0787,35.5953
1773.2787,34.2837
1773.4788,32.7948
1773.6787,31.0546
1773.8787,29.0979
1774.0787,27.1027
1774.2787,25.2563
1774.4788,23.7466
1774.6787,22.7609
1774.8787,22.4869
1775.0787,23.1122
1775.2787,24.8239
1775.4788,27.6648
1775.6787,31.3296
1775.8787,35.4615
1776.0787,39.7037
1776.2787,43.6994
1776.4788,47.0917
1776.6787,49.5238
1776.8787,50.639
1777.0787,50.1835
1777.2787,48.3827
1777.4788,45.6012
1777.6787,42.2033
1777.8787,38.5536
1778.0787,35.0166
1778.2787,31.9567
1778.4788,29.7384
1778.6787,28.6875
1778.8787,28.7693
1779.0787,29.7534
1779.2787,31.4075
1779.4788,33.4992
1779.6787,35.7963
1779.8787,38.0665
1780.0787,40.0774
1780.2787,41.6036
1780.4788,42.5701
1780.6787,43.0471
1780.8787,43.1106
1781.0787,42.8369
1781.2787,42.3019
1781.4788,41.5817
1781.6787,40.7525
1781.8787,39.89
1782.0787,39.0466
1782.2787,38.2343
1782.4788,37.4615
1782.6787,36.7365
1782.8787,36.0676
1783.0787,35.463
1783.2787,34.9309
1783.4788,34.4798
1783.6787,34.1083
1783.8787,33.7855
1784.0787,33.4748
1784.2787,33.1395
1784.4788,32.743
1784.6787,32.2486
1784.8787,31.6196
1785.0787,30.8194
1785.2787,29.8274
1785.4788,28.7174
1785.6787,27.5972
1785.8787,26.575
1786.0787,25.7589
1786.2787,25.2567
1786.4788,25.1767
1786.6787,25.6268
1786.8787,26.7017
1787.0787,28.3394
1787.2787,30.3761
1787.4788,32.6461
1787.6787,34.9839
1787.8787,37.224
1788.0787,39.2007
1788.2787,40.7486
1788.4788,41.7064
1788.6787,42.0359
1788.8787,41.8361
1789.0787,41.2136
1789.2787,40.2747
1789.4788,39.1258
1789.6787,37.8733
1789.8787,36.6236
1790.0787,35.4829
1790.2787,34.5344
1790.4788,33.8169
1790.6787,33.3642
1790.8787,33.2101
1791.0787,33.3883
1791.2787,33.9325
1791.4788,34.8765
1791.6787,36.2541
1791.8787,38.0639
1792.0787,40.1833
1792.2787,42.4639
1792.4788,44.7569
1792.6787,46.914
1792.8787,48.7865
1793.0787,50.2259
1793.2787,51.0837
1793.4788,51.2391
1793.6787,50.7485
1793.8787,49.7368
1794.0787,48.3295
1794.2787,46.6517
1794.4788,44.8287
1794.6787,42.9857
1794.8787,41.2481
1795.0787,39.7349
1795.2787,38.4886
1795.4788,37.5001
1795.6787,36.7595
1795.8787,36.2567
1796.0787,35.9817
1796.2787,35.9245
1796.4788,36.0751
1796.6787,36.4233
1796.8787,36.9559
1797.0787,37.6557
1797.2787,38.5057
1797.4788,39.4885
1797.6787,40.5872
1797.8787,41.7843
1798.0787,43.0629
1798.2787,44.4053
1798.4788,45.7646
1798.6787,47.0375
1798.8787,48.115
1799.0787,48.8876
1799.2787,49.2461
1799.4788,49.0812
1799.6787,48.2836
1799.8787,46.744
1800.0787,44.4248
1800.2787,41.5225
1800.4788,38.281
1800.6787,34.9445
1800.8787,31.757
1801.0787,28.9627
1801.2787,26.8056
1801.4788,25.5298
1801.6787,25.3278
1801.8787,26.0935
1802.0787,27.6136
1802.2787,29.6746
1802.4788,32.063
1802.6787,34.5651
1802.8787,36.9676
1803.0787,39.0569
1803.2787,40.6371
1803.4788,41.6996
1803.6787,42.35
1803.8787,42.6951
1804.0787,42.8419
1804.2787,42.8973
1804.4788,42.9683
1804.6787,43.162
1804.8787,43.5815
1805.0787,44.2482
1805.2787,45.1022
1805.4788,46.0801
1805.6787,47.1184
1805.8787,48.1539
1806.0787,49.123
1806.2787,49.9624
1806.4788,50.6088
1806.6787,51.004
1806.8787,51.098
1807.0787,50.8417
1807.2787,50.1859
1807.4788,49.0814
1807.6787,47.4791
1807.8787,45.3297
1808.0787,42.5842
1808.2787,39.2783
1808.4788,35.673
1808.6787,32.0661
1808.8787,28.7558
1809.0787,26.0398
1809.2787,24.2162
1809.4788,23.583
1809.6787,24.438
1809.8787,26.9693
1810.0787,30.8666
1810.2787,35.6786
1810.4788,40.9538
1810.6787,46.2408
1810.8787,51.0883
1811.0787,55.0449
1811.2787,57.6591
1811.4788,58.5467
1811.6787,57.851
1811.8787,55.9647
1812.0787,53.282
1812.2787,50.1971
1812.4788,47.1041
1812.6787,44.3973
1812.8787,42.4709
1813.0787,41.6941
1813.2787,42.0729
1813.4788,43.3379
1813.6787,45.2126
1813.8787,47.4208
1814.0787,49.686
1814.2787,51.732
1814.4788,53.2823
1814.6787,54.0671
1814.8787,54.0249
1815.0787,53.3427
1815.2787,52.2221
1815.4788,50.8647
1815.6787,49.4721
1815.8787,48.2458
1816.0787,47.3875
1816.2787,47.0976
1816.4788,47.4643
1816.6787,48.364
1816.8787,49.6497
1817.0787,51.1744
1817.2787,52.7909
1817.4788,54.3524
1817.6787,55.7117
1817.8787,56.7219
1818.0787,57.2784
1818.2787,57.4055
1818.4788,57.152
1818.6787,56.5666
1818.8787,55.6981
1819.0787,54.5951
1819.2787,53.3064
1819.4788,51.8808
1819.6787,50.3662
1819.8787,48.807
1820.0787,47.2465
1820.2787,45.7277
1820.4788,44.294
1820.6787,42.9886
1820.8787,41.8547
1821.0787,40.9354
1821.2787,40.2689
1821.4788,39.8508
1821.6787,39.6553
1821.8787,39.6564
1822.0787,39.8281
1822.2787,40.1444
1822.4788,40.5795
1822.6787,41.1073
1822.8787,41.7017
1823.0787,42.334
1823.2787,42.9738
1823.4788,43.5903
1823.6787,44.1531
1823.8787,44.6314
1824.0787,44.9947
1824.2787,45.2123
1824.4788,45.254
1824.6787,45.101
1824.8787,44.7481
1825.0787,44.1906
1825.2787,43.4242
1825.4788,42.4443
1825.6787,41.2464
1825.8787,39.8259
1826.0787,38.1788
1826.2787,36.3328
1826.4788,34.3734
1826.6787,32.3919
1826.8787,30.4798
1827.0787,28.7284
1827.2787,27.2293
1827.4788,26.0738
1827.6787,25.3533
1827.8787,25.1252
1828.0787,25.3523
1828.2787,25.9806
1828.4788,26.9565
1828.6787,28.2262
1828.8787,29.7359
1829.0787,31.4318
1829.2787,33.2602
1829.4788,35.1606
1829.6787,37.0429
1829.8787,38.809
1830.0787,40.3606
1830.2787,41.5995
1830.4788,42.4275
1830.6787,42.7462
1830.8787,42.4576
1831.0787,41.4925
1831.2787,39.9878
1831.4788,38.1691
1831.6787,36.2623
1831.8787,34.4933
1832.0787,33.088
1832.2787,32.2725
1832.4788,32.2727
1832.6787,33.2893
1832.8787,35.2287
1833.0787,37.8055
1833.2787,40.7313
1833.4788,43.7176
1833.6787,46.4759
1833.8787,48.7177
1834.0787,50.1544
1834.2787,50.5104
1834.4788,49.7816
1834.6787,48.2246
1834.8787,46.1067
1835.0787,43.6952
1835.2787,41.2571
1835.4788,39.0599
1835.6787,37.3706
1835.8787,36.4523
1836.0787,36.3708
1836.2787,36.914
1836.4788,37.8491
1836.6787,38.9431
1836.8787,39.9631
1837.0787,40.6762
1837.2787,40.8494
1837.4788,40.2508
1837.6787,38.7934
1837.8787,36.6917
1838.0787,34.1977
1838.2787,31.5636
1838.4788,29.0413
1838.6787,26.8829
1838.8787,25.3404
1839.0787,24.6658
1839.2787,25.0156
1839.4788,26.2478
1839.6787,28.1625
1839.8787,30.5596
1840.0787,33.2394
1840.2787,36.0018
1840.4788,38.6469
1840.6787,40.9748
1840.8787,42.8173
1841.0787,44.1569
1841.2787,45.0207
1841.4788,45.4356
1841.6787,45.4288
1841.8787,45.0272
1842.0787,44.2578
1842.2787,43.1478
1842.4788,41.7328
1842.6787,40.1113
1842.8787,38.4095
1843.0787,36.7536
1843.2787,35.2701
1843.4788,34.085
1843.6787,33.3249
1843.8787,33.1159
1844.0787,33.5677
1844.2787,34.5984
1844.4788,36.004
1844.6787,37.5782
1844.8787,39.1149
1845.0787,40.4078
1845.2787,41.2507
1845.4788,41.4375
1845.6787,40.7732
1845.8787,39.2809
1846.0787,37.1822
1846.2787,34.7059
1846.4788,32.0807
1846.6787,29.5354
1846.8787,27.2988
1847.0787,25.5997
1847.2787,24.6624
1847.4788,24.5395
1847.6787,25.0636
1847.8787,26.0531
1848.0787,27.326
1848.2787,28.7006
1848.4788,29.9951
1848.6787,31.0276
1848.8787,31.6175
1849.0787,31.68
1849.2787,31.305
1849.4788,30.6006
1849.6787,29.675
1849.8787,28.6364
1850.0787,27.5929
1850.2787,26.6526
1850.4788,25.9237
1850.6787,25.4735
1850.8787,25.2643
1851.0787,25.2414
1851.2787,25.3505
1851.4788,25.5369
1851.6787,25.7461
1851.8787,25.9236
1852.0787,26.0148
1852.2787,25.9801
1852.4788,25.8353
1852.6787,25.6093
1852.8787,25.331
1853.0787,25.0293
1853.2787,24.7331
1853.4788,24.4713
1853.6787,24.2727
1853.8787,24.162
1854.0787,24.1415
1854.2787,24.2055
1854.4788,24.3488
1854.6787,24.5657
1854.8787,24.8508
1855.0787,25.1986
1855.2787,25.6037
1855.4788,26.0586
1855.6787,26.5403
1855.8787,27.0186
1856.0787,27.4632
1856.2787,27.8435
1856.4788,28.1294
1856.6787,28.2903
1856.8787,28.296
1857.0787,28.12
1857.2787,27.7824
1857.4788,27.334
1857.6787,26.8262
1857.8787,26.3104
1858.0787,25.838
1858.2787,25.4602
1858.4788,25.2285
1858.6787,25.1922
1858.8787,25.3596
1859.0787,25.7029
1859.2787,26.1929
1859.4788,26.8002
1859.6787,27.4957
1859.8787,28.2501
1860.0787,29.0342
1860.2787,29.8192
1860.4788,30.5935
1860.6787,31.3661
1860.8787,32.1473
1861.0787,32.9475
1861.2787,33.7768
1861.4788,34.6455
1861.6787,35.564
1861.8787,36.5419
1862.0787,37.5556
1862.2787,38.5264
1862.4788,39.3707
1862.6787,40.0049
1862.8787,40.3452
1863.0787,40.308
1863.2787,39.8097
1863.4788,38.7669
1863.6787,37.1706
1863.8787,35.1755
1864.0787,32.9582
1864.2787,30.6954
1864.4788,28.5638
1864.6787,26.7398
1864.8787,25.4003
1865.0787,24.7218
1865.2787,24.8012
1865.4788,25.494
1865.6787,26.6109
1865.8787,27.9622
1866.0787,29.3583
1866.2787,30.6097
1866.4788,31.5268
1866.6787,31.9201
1866.8787,31.6598
1867.0787,30.865
1867.2787,29.7194
1867.4788,28.4066
1867.6787,27.1101
1867.8787,26.0135
1868.0787,25.3005
1868.2787,25.1547
1868.4788,25.7233
1868.6787,26.9468
1868.8787,28.6927
1869.0787,30.8283
1869.2787,33.2211
1869.4788,35.7384
1869.6787,38.2475
1869.8787,40.616
1870.0787,42.7184
1870.2787,44.4873
1870.4788,45.8823
1870.6787,46.8633
1870.8787,47.3901
1871.0787,47.4225
1871.2787,46.9206
1871.4788,45.844
1871.6787,44.1629
1871.8787,41.961
1872.0787,39.3923
1872.2787,36.6121
1872.4788,33.7757
1872.6787,31.0383
1872.8787,28.5551
1873.0787,26.4813
1873.2787,24.9646
1873.4788,24.0299
1873.6787,23.6032
1873.8787,23.6074
1874.0787,23.9658
1874.2787,24.6013
1874.4788,25.437
1874.6787,26.3961
1874.8787,27.4029
1875.0787,28.4176
1875.2787,29.4369
1875.4788,30.4594
1875.6787,31.4836
1875.8787,32.508
1876.0787,33.5312
1876.2787,34.5518
1876.4788,35.5678
1876.6787,36.5617
1876.8787,37.4948
1877.0787,38.327
1877.2787,39.0183
1877.4788,39.5286
1877.6787,39.8179
1877.8787,39.846
1878.0787,39.5736
1878.2787,39.0177
1878.4788,38.2908
1878.6787,37.515
1878.8787,36.8122
1879.0787,36.3043
1879.2787,36.1133
1879.4788,36.3611
1879.6787,37.1691
1879.8787,38.5556
1880.0787,40.3141
1880.2787,42.2085
1880.4788,44.0027
1880.6787,45.4608
1880.8787,46.3466
1881.0787,46.4242
1881.2787,45.4576
1881.4788,43.3495
1881.6787,40.3897
1881.8787,36.9352
1882.0787,33.3429
1882.2787,29.9699
1882.4788,27.1732
1882.6787,25.3098
1882.8787,24.7366
1883.0787,25.6749
1883.2787,27.8571
1883.4788,30.9056
1883.6787,34.4427
1883.8787,38.0907
1884.0787,41.472
1884.2787,44.2089
1884.4788,45.9237
1884.6787,46.3319
1884.8787,45.5796
1885.0787,43.9382
1885.2787,41.6788
1885.4788,39.0727
1885.6787,36.3911
1885.8787,33.9052
1886.0787,31.8862
1886.2787,30.5636
1886.4788,29.9178
1886.6787,29.8379
1886.8787,30.2128
1887.0787,30.9314
1887.2787,31.8823
1887.4788,32.9547
1887.6787,34.0371
1887.8787,35.0246
1888.0787,35.8566
1888.2787,36.4937
1888.4788,36.8964
1888.6787,37.0254
1888.8787,36.8411
1889.0787,36.3041
1889.2787,35.375
1889.4788,34.0269
1889.6787,32.3568
1889.8787,30.5327
1890.0787,28.7236
1890.2787,27.0982
1890.4788,25.8254
1890.6787,25.0741
1890.8787,25.0131
1891.0787,25.795
1891.2787,27.3588
1891.4788,29.494
1891.6787,31.9873
1891.8787,34.6251
1892.0787,37.1941
1892.2787,39.4806
1892.4788,41.2712
1892.6787,42.3622
1892.8787,42.7193
1893.0787,42.4525
1893.2787,41.6762
1893.4788,40.5051
1893.6787,39.0537
1893.8787,37.4364
1894.0787,35.7679
1894.2787,34.1616
1894.4788,32.7071
1894.6787,31.4693
1894.8787,30.5121
1895.0787,29.8992
1895.2787,29.6944
1895.4788,29.9617
1895.6787,30.7647
1895.8787,32.1638
1896.0787,34.0979
1896.2787,36.3568
1896.4788,38.7213
1896.6787,40.972
1896.8787,42.8896
1897.0787,44.2549
1897.2787,44.8485
1897.4788,44.4546
1897.6787,43.036
1897.8787,40.818
1898.0787,38.047
1898.2787,34.9691
1898.4788,31.8306
1898.6787,28.8778
1898.8787,26.357
1899.0787,24.513
1899.2787,23.4733
1899.4788,23.1596
1899.6787,23.4729
1899.8787,24.3142
1900.0787,25.5844
1900.2787,27.1845
1900.4788,29.0155
1900.6787,30.9783
1900.8787,32.9775
1901.0787,34.925
1901.2787,36.7336
1901.4788,38.3163
1901.6787,39.5859
1901.8787,40.4552
1902.0787,40.8371
1902.2787,40.6447
1902.4788,39.8558
1902.6787,38.6094
1902.8787,37.0686
1903.0787,35.3964
1903.2787,33.756
1903.4788,32.3106
1903.6787,31.2233
1903.8787,30.6572
1904.0787,30.7032
1904.2787,31.2402
1904.4788,32.1087
1904.6787,33.1491
1904.8787,34.2017
1905.0787,35.107
1905.2787,35.7055
1905.4788,35.8373
1905.6787,35.4021
1905.8787,34.5039
1906.0787,33.2915
1906.2787,31.9133
1906.4788,30.5181
1906.6787,29.2545
1906.8787,28.271
1907.0787,27.7164
1907.2787,27.6946
1907.4788,28.1266
1907.6787,28.8865
1907.8787,29.8484
1908.0787,30.8864
1908.2787,31.8748
1908.4788,32.6874
1908.6787,33.1986
1908.8787,33.3111
1909.0787,33.0664
1909.2787,32.5472
1909.4788,31.8366
1909.6787,31.0173
1909.8787,30.1723
1910.0787,29.3844
1910.2787,28.7366
1910.4788,28.2957
1910.6787,28.0388
1910.8787,27.9118
1911.0787,27.8603
1911.2787,27.8303
1911.4788,27.7674
1911.6787,27.6173
1911.8787,27.3259
1912.0787,26.8504
1912.2787,26.2229
1912.4788,25.5055
1912.6787,24.7604
1912.8787,24.05
1913.0787,23.4364
1913.2787,22.9818
1913.4788,22.7486
1913.6787,22.793
1913.8787,23.1273
1914.0787,23.7436
1914.2787,24.6337
1914.4788,25.7894
1914.6787,27.2028
1914.8787,28.8656
1915.0787,30.7697
1915.2787,32.8988
1915.4788,35.1645
1915.6787,37.4405
1915.8787,39.6008
1916.0787,41.5188
1916.2787,43.0682
1916.4788,44.1228
1916.6787,44.5563
1916.8787,44.2599
1917.0787,43.307
1917.2787,41.8765
1917.4788,40.1488
1917.6787,38.3043
1917.8787,36.5235
1918.0787,34.9866
1918.2787,33.8742
1918.4788,33.352
1918.6787,33.4141
1918.8787,33.9429
1919.0787,34.8187
1919.2787,35.9219
1919.4788,37.1329
1919.6787,38.332
1919.8787,39.3996
1920.0787,40.2205
1920.2787,40.7383
1920.4788,40.9392
1920.6787,40.8101
1920.8787,40.3382
1921.0787,39.5106
1921.2787,38.3143
1921.4788,36.7364
1921.6787,34.7712
1921.8787,32.5271
1922.0787,30.203
1922.2787,28.0005
1922.4788,26.121
1922.6787,24.766
1922.8787,24.137
1923.0787,24.4355
1923.2787,25.8483
1923.4788,28.2953
1923.6787,31.4639
1923.8787,35.034
1924.0787,38.6853
1924.2787,42.0975
1924.4788,44.9504
1924.6787,46.9237
1924.8787,47.7104
1925.0787,47.2796
1925.2787,45.8619
1925.4788,43.6983
1925.6787,41.0299
1925.8787,38.0976
1926.0787,35.1423
1926.2787,32.405
1926.4788,30.1211
1926.6787,28.3863
1926.8787,27.1537
1927.0787,26.3696
1927.2787,25.9806
1927.4788,25.933
1927.6787,26.1733
1927.8787,26.6478
1928.0787,27.3037
1928.2787,28.1081
1928.4788,29.0496
1928.6787,30.1182
1928.8787,31.3041
1929.0787,32.597
1929.2787,33.987
1929.4788,35.4641
1929.6787,37.0168
1929.8787,38.5905
1930.0787,40.0791
1930.2787,41.3737
1930.4788,42.3652
1930.6787,42.9447
1930.8787,43.0032
1931.0787,42.4316
1931.2787,41.1249
1931.4788,39.1199
1931.6787,36.6328
1931.8787,33.8912
1932.0787,31.1228
1932.2787,28.555
1932.4788,26.4157
1932.6787,24.9323
1932.8787,24.3287
1933.0787,24.6683
1933.2787,25.7998
1933.4788,27.5567
1933.6787,29.7728
1933.8787,32.2816
1934.0787,34.9168
1934.2787,37.5121
1934.4788,39.9021
1934.6787,41.9766
1934.8787,43.7029
1935.0787,45.054
1935.2787,46.0031
1935.4788,46.5234
1935.6787,46.588
1935.8787,46.1701
1936.0787,45.2439
1936.2787,43.8501
1936.4788,42.1267
1936.6787,40.2203
1936.8787,38.277
1937.0787,36.4433
1937.2787,34.8653
1937.4788,33.6895
1937.6787,33.0604
1937.8787,33.0215
1938.0787,33.4599
1938.2787,34.2487
1938.4788,35.2614
1938.6787,36.3713
1938.8787,37.4518
1939.0787,38.3762
1939.2787,39.019
1939.4788,39.3263
1939.6787,39.3596
1939.8787,39.1906
1940.0787,38.8915
1940.2787,38.5339
1940.4788,38.1899
1940.6787,37.9313
1940.8787,37.8292
1941.0787,37.8956
1941.2787,38.0439
1941.4788,38.1782
1941.6787,38.2026
1941.8787,38.0212
1942.0787,37.5381
1942.2787,36.6575
1942.4788,35.2847
1942.6787,33.4317
1942.8787,31.2928
1943.0787,29.0799
1943.2787,27.0049
1943.4788,25.2799
1943.6787,24.1167
1943.8787,23.7274
1944.0787,24.322
1944.2787,25.9427
1944.4788,28.3383
1944.6787,31.2282
1944.8787,34.3317
1945.0787,37.368
1945.2787,40.0564
1945.4788,42.1163
1945.6787,43.2687
1945.8787,43.4016
1946.0787,42.6994
1946.2787,41.377
1946.4788,39.6492
1946.6787,37.731
1946.8787,35.8371
1947.0787,34.1825
1947.2787,32.981
1947.4788,32.3395
1947.6787,32.1733
1947.8787,32.3777
1948.0787,32.8479
1948.2787,33.4792
1948.4788,34.1669
1948.6787,34.8061
1948.8787,35.2928
1949.0787,35.5721
1949.2787,35.6791
1949.4788,35.6581
1949.6787,35.5535
1949.8787,35.4096
1950.0787,35.2709
1950.2787,35.1818
1950.4788,35.1863
1950.6787,35.3063
1950.8787,35.5233
1951.0787,35.8146
1951.2787,36.1574
1951.4788,36.5289
1951.6787,36.9065
1951.8787,37.2673
1952.0787,37.5889
1952.2787,37.8676
1952.4788,38.1338
1952.6787,38.4215
1952.8787,38.7647
1953.0787,39.1975
1953.2787,39.7536
1953.4788,40.4672
1953.6787,41.3716
1953.8787,42.446
1954.0787,43.5736
1954.2787,44.6273
1954.4788,45.4805
1954.6787,46.0061
1954.8787,46.0774
1955.0787,45.5674
1955.2787,44.3506
1955.4788,42.4059
1955.6787,39.8947
1955.8787,36.9972
1956.0787,33.8933
1956.2787,30.763
1956.4788,27.7862
1956.6787,25.1429
1956.8787,23.0121
1957.0787,21.4837
1957.2787,20.4961
1957.4788,19.9726
1957.6787,19.8365
1957.8787,20.0112
1958.0787,20.4201
1958.2787,20.9865
1958.4788,21.6342
1958.6787,22.3072
1958.8787,22.984
1959.0787,23.6461
1959.2787,24.2753
1959.4788,24.8531
1959.6787,25.3612
1959.8787,25.7811
1960.0787,26.0948
1960.2787,26.2971
1960.4788,26.4043
1960.6787,26.4347
1960.8787,26.4062
1961.0787,26.3371
1961.2787,26.2455
1961.4788,26.1496
1961.6787,26.0674
1961.8787,26.009
1962.0787,25.9721
1962.2787,25.9536
1962.4788,25.9502
1962.6787,25.9587
1962.8787,25.9758
1963.0787,25.9982
1963.2787,26.0227

##### Extended Information
[Comments]
Sample name,cer
Comment,
User
Division
Company,JASCO

[Detailed Information]
Creation date,4/6/2021 15:17

Data array type,Linear data array
Horizontal axis,Raman Shift [cm-1]
Vertical axis,Int.
Start,88.4787 cm-1
End,1963.28 cm-1
Data interval,0.2 cm-1
Data points,9375    

[Measurement Information]
Model Name,NRS-5100
Serial Number,B002561420

Exposure,60 sec
Accumulation,4
Center wavenumber,1091.04 cm-1
Z position,57224.8 um
Binning Upper,111
Binning Lower,165
Valid Channel,1 - 1024
CCD,DU420_OE

Laser wavelength,532.10 nm
Monochromator,Single
Grating,1200 l/mm
Slit,25 x 1000 um
Aperture,d-4000 um
Notch filter,532.0 nm
Resolution,1.75 cm-1, 1.83 cm-1/pixel
Objective lens,UMPLFL 20 x
BS/DM,BS 30/70
1/2 plate,Not fitted
Polarization,Not fitted
Laser power,3.6 mW
Attenuator,Open
Cosmic ray reduction,On
Delete Fluorence,R=100
CCD temperature,-69.0 C
Shift,-3.60 cm-1

